Labels	2AE_3APTMS_Br15_1M_1MHz_0	
Type	Time Scan	
Comment		
Start	0.00	
Stop	999.511720	
Step	0.48828125	
Fixed/Offset	 	
XAxis	Time(ns)	
YAxis	Counts	

0.00	0.00000000E+0	
0.48828125	0.00000000E+0	
0.97656250	0.00000000E+0	
1.4648438	0.00000000E+0	
1.9531250	0.00000000E+0	
2.4414063	0.00000000E+0	
2.9296875	0.00000000E+0	
3.4179688	0.00000000E+0	
3.906250	0.00000000E+0	
4.3945313	0.00000000E+0	
4.8828125	0.00000000E+0	
5.3710938	0.00000000E+0	
5.8593750	0.00000000E+0	
6.3476563	0.00000000E+0	
6.8359375	0.00000000E+0	
7.3242188	0.00000000E+0	
7.81250	0.00000000E+0	
8.3007813	0.00000000E+0	
8.7890625	0.00000000E+0	
9.2773438	0.00000000E+0	
9.7656250	0.00000000E+0	
10.253906	0.00000000E+0	
10.742188	0.00000000E+0	
11.230469	0.00000000E+0	
11.718750	0.00000000E+0	
12.207031	0.00000000E+0	
12.695313	0.00000000E+0	
13.183594	0.00000000E+0	
13.671875	0.00000000E+0	
14.160156	0.00000000E+0	
14.648438	0.00000000E+0	
15.136719	0.00000000E+0	
15.6250	0.00000000E+0	
16.113281	0.00000000E+0	
16.601563	0.00000000E+0	
17.089844	0.00000000E+0	
17.578125	0.00000000E+0	
18.066406	0.00000000E+0	
18.554688	0.00000000E+0	
19.042969	0.00000000E+0	
19.531250	0.00000000E+0	
20.019531	0.00000000E+0	
20.507813	0.00000000E+0	
20.996094	0.00000000E+0	
21.484375	0.00000000E+0	
21.972656	0.00000000E+0	
22.460938	0.00000000E+0	
22.949219	0.00000000E+0	
23.43750	0.00000000E+0	
23.925781	0.00000000E+0	
24.414063	0.00000000E+0	
24.902344	0.00000000E+0	
25.390625	0.00000000E+0	
25.878906	0.00000000E+0	
26.367188	0.00000000E+0	
26.855469	0.00000000E+0	
27.343750	0.00000000E+0	
27.832031	0.00000000E+0	
28.320313	0.00000000E+0	
28.808594	0.00000000E+0	
29.296875	0.00000000E+0	
29.785156	0.00000000E+0	
30.273438	8.00000000E+0	
30.761719	7.00000000E+0	
31.250	1.10000000E+1	
31.738281	1.00000000E+1	
32.226563	5.00000000E+0	
32.714844	6.00000000E+0	
33.203125	1.00000000E+1	
33.691406	7.00000000E+0	
34.179688	9.00000000E+0	
34.667969	0.00000000E+0	
35.156250	8.00000000E+0	
35.644531	4.00000000E+0	
36.132813	8.00000000E+0	
36.621094	7.00000000E+0	
37.109375	2.00000000E+0	
37.597656	7.00000000E+0	
38.085938	5.00000000E+0	
38.574219	3.00000000E+0	
39.06250	5.00000000E+0	
39.550781	8.00000000E+0	
40.039063	7.00000000E+0	
40.527344	8.00000000E+0	
41.015625	5.00000000E+0	
41.503906	6.00000000E+0	
41.992188	1.00000000E+1	
42.480469	5.00000000E+0	
42.968750	6.00000000E+0	
43.457031	3.00000000E+0	
43.945313	2.00000000E+0	
44.433594	8.00000000E+0	
44.921875	6.00000000E+0	
45.410156	4.00000000E+0	
45.898438	6.00000000E+0	
46.386719	6.00000000E+0	
46.8750	7.00000000E+0	
47.363281	2.00000000E+0	
47.851563	9.00000000E+0	
48.339844	4.00000000E+0	
48.828125	1.20000000E+1	
49.316406	6.40000000E+1	
49.804688	1.82000000E+2	
50.292969	2.93000000E+2	
50.781250	2.82000000E+2	
51.269531	2.95000000E+2	
51.757813	2.77000000E+2	
52.246094	2.21000000E+2	
52.734375	2.47000000E+2	
53.222656	2.58000000E+2	
53.710938	2.02000000E+2	
54.199219	2.54000000E+2	
54.68750	2.36000000E+2	
55.175781	2.23000000E+2	
55.664063	2.44000000E+2	
56.152344	2.06000000E+2	
56.640625	2.39000000E+2	
57.128906	2.61000000E+2	
57.617188	2.32000000E+2	
58.105469	2.15000000E+2	
58.593750	2.18000000E+2	
59.082031	2.40000000E+2	
59.570313	2.28000000E+2	
60.058594	2.19000000E+2	
60.546875	2.08000000E+2	
61.035156	2.11000000E+2	
61.523438	2.02000000E+2	
62.011719	2.10000000E+2	
62.50	2.09000000E+2	
62.988281	2.10000000E+2	
63.476563	1.94000000E+2	
63.964844	1.99000000E+2	
64.453125	2.12000000E+2	
64.941406	2.05000000E+2	
65.429688	2.13000000E+2	
65.917969	2.04000000E+2	
66.406250	2.01000000E+2	
66.894531	2.14000000E+2	
67.382813	1.93000000E+2	
67.871094	2.17000000E+2	
68.359375	1.95000000E+2	
68.847656	2.00000000E+2	
69.335938	1.82000000E+2	
69.824219	1.91000000E+2	
70.31250	2.06000000E+2	
70.800781	1.74000000E+2	
71.289063	2.15000000E+2	
71.777344	1.83000000E+2	
72.265625	1.78000000E+2	
72.753906	1.75000000E+2	
73.242188	1.66000000E+2	
73.730469	1.70000000E+2	
74.218750	1.74000000E+2	
74.707031	1.78000000E+2	
75.195313	1.78000000E+2	
75.683594	1.88000000E+2	
76.171875	1.77000000E+2	
76.660156	1.65000000E+2	
77.148438	1.70000000E+2	
77.636719	1.67000000E+2	
78.1250	1.87000000E+2	
78.613281	1.57000000E+2	
79.101563	1.91000000E+2	
79.589844	1.81000000E+2	
80.078125	1.50000000E+2	
80.566406	1.70000000E+2	
81.054688	1.73000000E+2	
81.542969	1.59000000E+2	
82.031250	1.84000000E+2	
82.519531	1.88000000E+2	
83.007813	1.74000000E+2	
83.496094	1.78000000E+2	
83.984375	1.66000000E+2	
84.472656	1.87000000E+2	
84.960938	1.80000000E+2	
85.449219	1.65000000E+2	
85.93750	1.64000000E+2	
86.425781	1.72000000E+2	
86.914063	1.68000000E+2	
87.402344	1.72000000E+2	
87.890625	1.74000000E+2	
88.378906	1.50000000E+2	
88.867188	1.50000000E+2	
89.355469	1.50000000E+2	
89.843750	1.78000000E+2	
90.332031	1.76000000E+2	
90.820313	1.74000000E+2	
91.308594	1.75000000E+2	
91.796875	1.37000000E+2	
92.285156	1.72000000E+2	
92.773438	1.75000000E+2	
93.261719	1.82000000E+2	
93.750	1.65000000E+2	
94.238281	1.39000000E+2	
94.726563	1.53000000E+2	
95.214844	1.60000000E+2	
95.703125	1.51000000E+2	
96.191406	1.74000000E+2	
96.679688	1.61000000E+2	
97.167969	1.60000000E+2	
97.656250	1.53000000E+2	
98.144531	1.44000000E+2	
98.632813	1.57000000E+2	
99.121094	1.49000000E+2	
99.609375	1.46000000E+2	
100.097660	1.63000000E+2	
100.585940	1.44000000E+2	
101.074220	1.60000000E+2	
101.562500	1.43000000E+2	
102.050780	1.45000000E+2	
102.539060	1.28000000E+2	
103.027340	1.23000000E+2	
103.515630	1.52000000E+2	
104.003910	1.51000000E+2	
104.492190	1.53000000E+2	
104.980470	1.56000000E+2	
105.468750	1.50000000E+2	
105.95700	1.66000000E+2	
106.445310	1.37000000E+2	
106.933590	1.43000000E+2	
107.421880	1.47000000E+2	
107.910160	1.64000000E+2	
108.398440	1.39000000E+2	
108.886720	1.56000000E+2	
109.37500	1.43000000E+2	
109.863280	1.30000000E+2	
110.351560	1.44000000E+2	
110.839840	1.32000000E+2	
111.328130	1.42000000E+2	
111.816410	1.54000000E+2	
112.304690	1.37000000E+2	
112.79300	1.33000000E+2	
113.281250	1.55000000E+2	
113.769530	1.25000000E+2	
114.257810	1.31000000E+2	
114.746090	1.39000000E+2	
115.234380	1.52000000E+2	
115.722660	1.27000000E+2	
116.210940	1.29000000E+2	
116.699220	1.29000000E+2	
117.187500	1.15000000E+2	
117.675780	1.40000000E+2	
118.164060	1.33000000E+2	
118.652340	1.41000000E+2	
119.140630	1.51000000E+2	
119.628910	1.42000000E+2	
120.117190	1.23000000E+2	
120.605470	1.17000000E+2	
121.093750	1.24000000E+2	
121.58200	1.20000000E+2	
122.070310	1.19000000E+2	
122.558590	1.10000000E+2	
123.046880	1.13000000E+2	
123.535160	1.28000000E+2	
124.023440	1.32000000E+2	
124.511720	1.13000000E+2	
125.00	1.06000000E+2	
125.488280	1.28000000E+2	
125.976560	1.26000000E+2	
126.464840	1.39000000E+2	
126.953130	1.20000000E+2	
127.441410	1.28000000E+2	
127.929690	1.15000000E+2	
128.41800	1.32000000E+2	
128.906250	1.26000000E+2	
129.394530	1.13000000E+2	
129.882810	1.30000000E+2	
130.371090	1.31000000E+2	
130.859380	1.12000000E+2	
131.347660	1.36000000E+2	
131.835940	1.34000000E+2	
132.324220	1.12000000E+2	
132.812500	1.18000000E+2	
133.300780	1.14000000E+2	
133.789060	1.16000000E+2	
134.277340	1.21000000E+2	
134.765630	1.30000000E+2	
135.253910	1.30000000E+2	
135.742190	1.22000000E+2	
136.230470	1.28000000E+2	
136.718750	1.41000000E+2	
137.20700	1.04000000E+2	
137.695310	1.12000000E+2	
138.183590	1.03000000E+2	
138.671880	1.11000000E+2	
139.160160	1.19000000E+2	
139.648440	1.42000000E+2	
140.136720	1.17000000E+2	
140.62500	1.17000000E+2	
141.113280	1.12000000E+2	
141.601560	1.28000000E+2	
142.089840	1.21000000E+2	
142.578130	1.13000000E+2	
143.066410	1.21000000E+2	
143.554690	1.22000000E+2	
144.04300	1.01000000E+2	
144.531250	1.08000000E+2	
145.019530	1.09000000E+2	
145.507810	1.15000000E+2	
145.996090	1.18000000E+2	
146.484380	1.16000000E+2	
146.972660	1.11000000E+2	
147.460940	1.27000000E+2	
147.949220	1.16000000E+2	
148.437500	1.12000000E+2	
148.925780	1.21000000E+2	
149.414060	1.07000000E+2	
149.902340	1.03000000E+2	
150.390630	1.00000000E+2	
150.878910	1.44000000E+2	
151.367190	8.80000000E+1	
151.855470	9.50000000E+1	
152.343750	9.70000000E+1	
152.83200	1.16000000E+2	
153.320310	1.00000000E+2	
153.808590	1.20000000E+2	
154.296880	9.20000000E+1	
154.785160	1.24000000E+2	
155.273440	1.26000000E+2	
155.761720	1.21000000E+2	
156.2500	1.20000000E+2	
156.738280	1.08000000E+2	
157.226560	1.11000000E+2	
157.714840	1.08000000E+2	
158.203130	1.03000000E+2	
158.691410	1.06000000E+2	
159.179690	1.12000000E+2	
159.66800	1.10000000E+2	
160.156250	1.06000000E+2	
160.644530	9.20000000E+1	
161.132810	1.09000000E+2	
161.621090	1.18000000E+2	
162.109380	9.20000000E+1	
162.597660	9.40000000E+1	
163.085940	1.13000000E+2	
163.574220	9.30000000E+1	
164.062500	1.01000000E+2	
164.550780	1.16000000E+2	
165.039060	1.17000000E+2	
165.527340	1.01000000E+2	
166.015630	9.90000000E+1	
166.503910	1.04000000E+2	
166.992190	1.13000000E+2	
167.480470	1.13000000E+2	
167.968750	8.70000000E+1	
168.45700	9.80000000E+1	
168.945310	8.30000000E+1	
169.433590	9.60000000E+1	
169.921880	1.06000000E+2	
170.410160	9.80000000E+1	
170.898440	8.60000000E+1	
171.386720	7.90000000E+1	
171.87500	8.80000000E+1	
172.363280	1.05000000E+2	
172.851560	9.60000000E+1	
173.339840	9.60000000E+1	
173.828130	8.80000000E+1	
174.316410	9.30000000E+1	
174.804690	1.00000000E+2	
175.29300	1.12000000E+2	
175.781250	1.05000000E+2	
176.269530	8.30000000E+1	
176.757810	9.50000000E+1	
177.246090	8.00000000E+1	
177.734380	1.06000000E+2	
178.222660	1.02000000E+2	
178.710940	8.70000000E+1	
179.199220	7.90000000E+1	
179.687500	8.00000000E+1	
180.175780	9.90000000E+1	
180.664060	9.70000000E+1	
181.152340	9.80000000E+1	
181.640630	8.10000000E+1	
182.128910	1.04000000E+2	
182.617190	8.60000000E+1	
183.105470	9.00000000E+1	
183.593750	7.90000000E+1	
184.08200	1.14000000E+2	
184.570310	8.10000000E+1	
185.058590	8.60000000E+1	
185.546880	9.50000000E+1	
186.035160	9.40000000E+1	
186.523440	9.90000000E+1	
187.011720	8.10000000E+1	
187.500	7.50000000E+1	
187.988280	8.60000000E+1	
188.476560	9.20000000E+1	
188.964840	8.20000000E+1	
189.453130	7.10000000E+1	
189.941410	9.60000000E+1	
190.429690	7.80000000E+1	
190.91800	9.50000000E+1	
191.406250	7.90000000E+1	
191.894530	9.20000000E+1	
192.382810	7.90000000E+1	
192.871090	9.00000000E+1	
193.359380	7.90000000E+1	
193.847660	1.03000000E+2	
194.335940	9.30000000E+1	
194.824220	8.80000000E+1	
195.312500	8.20000000E+1	
195.800780	8.90000000E+1	
196.289060	8.30000000E+1	
196.777340	8.70000000E+1	
197.265630	9.00000000E+1	
197.753910	6.90000000E+1	
198.242190	8.40000000E+1	
198.730470	8.50000000E+1	
199.218750	6.90000000E+1	
199.70700	8.10000000E+1	
200.195310	8.90000000E+1	
200.683590	9.30000000E+1	
201.171880	1.02000000E+2	
201.660160	7.50000000E+1	
202.148440	9.40000000E+1	
202.636720	7.70000000E+1	
203.12500	9.00000000E+1	
203.613280	7.60000000E+1	
204.101560	8.50000000E+1	
204.589840	8.40000000E+1	
205.078130	8.70000000E+1	
205.566410	6.80000000E+1	
206.054690	8.60000000E+1	
206.54300	8.50000000E+1	
207.031250	8.10000000E+1	
207.519530	7.50000000E+1	
208.007810	8.70000000E+1	
208.496090	8.10000000E+1	
208.984380	9.50000000E+1	
209.472660	7.10000000E+1	
209.960940	7.00000000E+1	
210.449220	6.60000000E+1	
210.937500	8.30000000E+1	
211.425780	8.40000000E+1	
211.914060	7.90000000E+1	
212.402340	8.30000000E+1	
212.890630	6.00000000E+1	
213.378910	7.80000000E+1	
213.867190	7.00000000E+1	
214.355470	8.10000000E+1	
214.843750	9.10000000E+1	
215.33200	8.20000000E+1	
215.820310	7.10000000E+1	
216.308590	6.90000000E+1	
216.796880	6.90000000E+1	
217.285160	8.50000000E+1	
217.773440	7.00000000E+1	
218.261720	7.60000000E+1	
218.7500	8.00000000E+1	
219.238280	6.80000000E+1	
219.726560	7.80000000E+1	
220.214840	7.90000000E+1	
220.703130	6.50000000E+1	
221.191410	7.70000000E+1	
221.679690	7.90000000E+1	
222.16800	7.20000000E+1	
222.656250	6.60000000E+1	
223.144530	8.60000000E+1	
223.632810	8.60000000E+1	
224.121090	6.40000000E+1	
224.609380	7.70000000E+1	
225.097660	8.10000000E+1	
225.585940	7.50000000E+1	
226.074220	7.70000000E+1	
226.562500	8.20000000E+1	
227.050780	7.30000000E+1	
227.539060	7.00000000E+1	
228.027340	7.00000000E+1	
228.515630	7.00000000E+1	
229.003910	8.30000000E+1	
229.492190	6.90000000E+1	
229.980470	8.60000000E+1	
230.468750	7.30000000E+1	
230.95700	8.00000000E+1	
231.445310	7.40000000E+1	
231.933590	7.10000000E+1	
232.421880	5.60000000E+1	
232.910160	6.40000000E+1	
233.398440	7.50000000E+1	
233.886720	7.60000000E+1	
234.37500	6.10000000E+1	
234.863280	6.90000000E+1	
235.351560	7.40000000E+1	
235.839840	7.30000000E+1	
236.328130	6.10000000E+1	
236.816410	7.30000000E+1	
237.304690	5.90000000E+1	
237.79300	7.40000000E+1	
238.281250	6.70000000E+1	
238.769530	9.60000000E+1	
239.257810	6.90000000E+1	
239.746090	6.70000000E+1	
240.234380	7.20000000E+1	
240.722660	6.10000000E+1	
241.210940	7.00000000E+1	
241.699220	6.80000000E+1	
242.187500	6.30000000E+1	
242.675780	7.80000000E+1	
243.164060	7.90000000E+1	
243.652340	7.60000000E+1	
244.140630	6.60000000E+1	
244.628910	6.30000000E+1	
245.117190	6.90000000E+1	
245.605470	6.30000000E+1	
246.093750	6.80000000E+1	
246.58200	6.80000000E+1	
247.070310	6.40000000E+1	
247.558590	7.10000000E+1	
248.046880	6.80000000E+1	
248.535160	8.20000000E+1	
249.023440	8.40000000E+1	
249.511720	5.40000000E+1	
250.00	6.10000000E+1	
250.488280	6.70000000E+1	
250.976560	5.20000000E+1	
251.464840	5.00000000E+1	
251.953130	6.00000000E+1	
252.441410	7.10000000E+1	
252.929690	5.20000000E+1	
253.41800	6.00000000E+1	
253.906250	6.60000000E+1	
254.394530	6.10000000E+1	
254.882810	6.80000000E+1	
255.371090	5.10000000E+1	
255.859380	5.50000000E+1	
256.347660	6.20000000E+1	
256.835940	5.80000000E+1	
257.324220	6.30000000E+1	
257.812500	6.40000000E+1	
258.300780	7.30000000E+1	
258.789060	4.30000000E+1	
259.277340	7.50000000E+1	
259.765630	6.00000000E+1	
260.253910	7.90000000E+1	
260.742190	7.30000000E+1	
261.230470	6.60000000E+1	
261.718750	6.20000000E+1	
262.20700	6.10000000E+1	
262.695310	5.50000000E+1	
263.183590	7.50000000E+1	
263.671880	4.50000000E+1	
264.160160	5.50000000E+1	
264.648440	6.20000000E+1	
265.136720	5.40000000E+1	
265.62500	7.40000000E+1	
266.113280	7.50000000E+1	
266.601560	6.80000000E+1	
267.089840	5.20000000E+1	
267.578130	6.30000000E+1	
268.066410	7.20000000E+1	
268.554690	6.50000000E+1	
269.04300	6.70000000E+1	
269.531250	6.60000000E+1	
270.019530	5.90000000E+1	
270.507810	6.00000000E+1	
270.996090	5.60000000E+1	
271.484380	6.20000000E+1	
271.972660	5.40000000E+1	
272.460940	5.30000000E+1	
272.949220	6.40000000E+1	
273.437500	6.30000000E+1	
273.925780	6.60000000E+1	
274.414060	6.40000000E+1	
274.902340	5.80000000E+1	
275.390630	5.00000000E+1	
275.878910	5.60000000E+1	
276.367190	5.00000000E+1	
276.855470	4.20000000E+1	
277.343750	5.80000000E+1	
277.83200	4.60000000E+1	
278.320310	5.50000000E+1	
278.808590	5.50000000E+1	
279.296880	4.90000000E+1	
279.785160	5.90000000E+1	
280.273440	5.20000000E+1	
280.761720	6.50000000E+1	
281.2500	5.00000000E+1	
281.738280	5.40000000E+1	
282.226560	6.60000000E+1	
282.714840	4.90000000E+1	
283.203130	6.10000000E+1	
283.691410	5.50000000E+1	
284.179690	6.50000000E+1	
284.66800	4.40000000E+1	
285.156250	4.80000000E+1	
285.644530	5.20000000E+1	
286.132810	5.60000000E+1	
286.621090	5.90000000E+1	
287.109380	6.70000000E+1	
287.597660	6.20000000E+1	
288.085940	6.00000000E+1	
288.574220	5.30000000E+1	
289.062500	4.50000000E+1	
289.550780	4.70000000E+1	
290.039060	6.40000000E+1	
290.527340	7.00000000E+1	
291.015630	5.00000000E+1	
291.503910	6.60000000E+1	
291.992190	5.70000000E+1	
292.480470	5.90000000E+1	
292.968750	4.70000000E+1	
293.45700	6.20000000E+1	
293.945310	5.00000000E+1	
294.433590	4.20000000E+1	
294.921880	5.20000000E+1	
295.410160	5.20000000E+1	
295.898440	5.50000000E+1	
296.386720	5.20000000E+1	
296.87500	5.20000000E+1	
297.363280	5.20000000E+1	
297.851560	5.50000000E+1	
298.339840	6.90000000E+1	
298.828130	4.70000000E+1	
299.316410	5.30000000E+1	
299.804690	5.50000000E+1	
300.29300	6.60000000E+1	
300.781250	5.20000000E+1	
301.269530	5.20000000E+1	
301.757810	5.20000000E+1	
302.246090	4.20000000E+1	
302.734380	5.00000000E+1	
303.222660	5.50000000E+1	
303.710940	6.30000000E+1	
304.199220	4.70000000E+1	
304.687500	4.60000000E+1	
305.175780	4.70000000E+1	
305.664060	5.90000000E+1	
306.152340	4.60000000E+1	
306.640630	5.50000000E+1	
307.128910	3.40000000E+1	
307.617190	3.70000000E+1	
308.105470	4.20000000E+1	
308.593750	4.60000000E+1	
309.08200	4.00000000E+1	
309.570310	4.90000000E+1	
310.058590	4.80000000E+1	
310.546880	4.50000000E+1	
311.035160	6.60000000E+1	
311.523440	4.20000000E+1	
312.011720	4.90000000E+1	
312.500	4.30000000E+1	
312.988280	5.60000000E+1	
313.476560	4.70000000E+1	
313.964840	5.70000000E+1	
314.453130	4.70000000E+1	
314.941410	4.30000000E+1	
315.429690	5.20000000E+1	
315.91800	4.30000000E+1	
316.406250	4.80000000E+1	
316.894530	5.00000000E+1	
317.382810	4.50000000E+1	
317.871090	5.60000000E+1	
318.359380	5.10000000E+1	
318.847660	5.00000000E+1	
319.335940	6.60000000E+1	
319.824220	4.60000000E+1	
320.312500	3.70000000E+1	
320.800780	3.50000000E+1	
321.289060	4.00000000E+1	
321.777340	4.10000000E+1	
322.265630	4.90000000E+1	
322.753910	4.50000000E+1	
323.242190	4.90000000E+1	
323.730470	4.80000000E+1	
324.218750	3.20000000E+1	
324.70700	4.30000000E+1	
325.195310	3.90000000E+1	
325.683590	4.00000000E+1	
326.171880	4.90000000E+1	
326.660160	4.30000000E+1	
327.148440	4.60000000E+1	
327.636720	3.60000000E+1	
328.12500	3.50000000E+1	
328.613280	4.50000000E+1	
329.101560	3.60000000E+1	
329.589840	3.90000000E+1	
330.078130	5.70000000E+1	
330.566410	4.40000000E+1	
331.054690	5.80000000E+1	
331.54300	3.60000000E+1	
332.031250	5.00000000E+1	
332.519530	5.50000000E+1	
333.007810	4.10000000E+1	
333.496090	5.40000000E+1	
333.984380	5.00000000E+1	
334.472660	4.50000000E+1	
334.960940	4.80000000E+1	
335.449220	4.40000000E+1	
335.937500	3.50000000E+1	
336.425780	4.90000000E+1	
336.914060	3.60000000E+1	
337.402340	4.70000000E+1	
337.890630	4.10000000E+1	
338.378910	4.00000000E+1	
338.867190	4.30000000E+1	
339.355470	5.30000000E+1	
339.843750	3.80000000E+1	
340.33200	4.20000000E+1	
340.820310	3.70000000E+1	
341.308590	5.20000000E+1	
341.796880	4.10000000E+1	
342.285160	5.00000000E+1	
342.773440	4.50000000E+1	
343.261720	4.70000000E+1	
343.7500	3.40000000E+1	
344.238280	4.40000000E+1	
344.726560	5.20000000E+1	
345.214840	3.60000000E+1	
345.703130	4.00000000E+1	
346.191410	3.50000000E+1	
346.679690	3.70000000E+1	
347.16800	4.50000000E+1	
347.656250	3.30000000E+1	
348.144530	4.80000000E+1	
348.632810	3.40000000E+1	
349.121090	4.30000000E+1	
349.609380	4.20000000E+1	
350.097660	4.00000000E+1	
350.585940	3.70000000E+1	
351.074220	4.70000000E+1	
351.562500	5.30000000E+1	
352.050780	4.20000000E+1	
352.539060	3.10000000E+1	
353.027340	3.90000000E+1	
353.515630	4.30000000E+1	
354.003910	4.00000000E+1	
354.492190	4.30000000E+1	
354.980470	5.40000000E+1	
355.468750	3.50000000E+1	
355.95700	3.40000000E+1	
356.445310	3.20000000E+1	
356.933590	3.90000000E+1	
357.421880	3.90000000E+1	
357.910160	3.10000000E+1	
358.398440	3.10000000E+1	
358.886720	3.50000000E+1	
359.37500	3.70000000E+1	
359.863280	4.00000000E+1	
360.351560	5.00000000E+1	
360.839840	3.80000000E+1	
361.328130	3.40000000E+1	
361.816410	3.90000000E+1	
362.304690	3.50000000E+1	
362.79300	4.40000000E+1	
363.281250	4.30000000E+1	
363.769530	3.60000000E+1	
364.257810	3.40000000E+1	
364.746090	4.50000000E+1	
365.234380	2.50000000E+1	
365.722660	3.40000000E+1	
366.210940	2.70000000E+1	
366.699220	3.50000000E+1	
367.187500	4.00000000E+1	
367.675780	3.10000000E+1	
368.164060	3.60000000E+1	
368.652340	3.50000000E+1	
369.140630	3.90000000E+1	
369.628910	4.00000000E+1	
370.117190	4.10000000E+1	
370.605470	4.10000000E+1	
371.093750	3.10000000E+1	
371.58200	4.50000000E+1	
372.070310	4.40000000E+1	
372.558590	3.50000000E+1	
373.046880	3.40000000E+1	
373.535160	3.30000000E+1	
374.023440	4.60000000E+1	
374.511720	3.70000000E+1	
375.00	3.90000000E+1	
375.488280	3.70000000E+1	
375.976560	3.20000000E+1	
376.464840	2.60000000E+1	
376.953130	4.50000000E+1	
377.441410	3.40000000E+1	
