Labels	APDES_1_br15_1	
Type	Time Scan	
Comment		
Start	0.00	
Stop	1999.511700	
Step	0.48828125	
Fixed/Offset	 	
XAxis	Time(ns)	
YAxis	Counts	

0.00	0.00000000E+0	
0.48828125	0.00000000E+0	
0.97656250	0.00000000E+0	
1.4648438	0.00000000E+0	
1.9531250	0.00000000E+0	
2.4414063	0.00000000E+0	
2.9296875	0.00000000E+0	
3.4179688	0.00000000E+0	
3.906250	0.00000000E+0	
4.3945313	0.00000000E+0	
4.8828125	0.00000000E+0	
5.3710938	0.00000000E+0	
5.8593750	0.00000000E+0	
6.3476563	0.00000000E+0	
6.8359375	0.00000000E+0	
7.3242188	0.00000000E+0	
7.81250	0.00000000E+0	
8.3007813	0.00000000E+0	
8.7890625	0.00000000E+0	
9.2773438	0.00000000E+0	
9.7656250	0.00000000E+0	
10.253906	0.00000000E+0	
10.742188	0.00000000E+0	
11.230469	0.00000000E+0	
11.718750	0.00000000E+0	
12.207031	0.00000000E+0	
12.695313	0.00000000E+0	
13.183594	0.00000000E+0	
13.671875	0.00000000E+0	
14.160156	0.00000000E+0	
14.648438	0.00000000E+0	
15.136719	0.00000000E+0	
15.6250	0.00000000E+0	
16.113281	0.00000000E+0	
16.601563	0.00000000E+0	
17.089844	0.00000000E+0	
17.578125	0.00000000E+0	
18.066406	0.00000000E+0	
18.554688	0.00000000E+0	
19.042969	0.00000000E+0	
19.531250	0.00000000E+0	
20.019531	0.00000000E+0	
20.507813	0.00000000E+0	
20.996094	0.00000000E+0	
21.484375	0.00000000E+0	
21.972656	0.00000000E+0	
22.460938	0.00000000E+0	
22.949219	0.00000000E+0	
23.43750	0.00000000E+0	
23.925781	0.00000000E+0	
24.414063	0.00000000E+0	
24.902344	0.00000000E+0	
25.390625	0.00000000E+0	
25.878906	0.00000000E+0	
26.367188	0.00000000E+0	
26.855469	0.00000000E+0	
27.343750	0.00000000E+0	
27.832031	0.00000000E+0	
28.320313	0.00000000E+0	
28.808594	0.00000000E+0	
29.296875	0.00000000E+0	
29.785156	0.00000000E+0	
30.273438	0.00000000E+0	
30.761719	0.00000000E+0	
31.250	0.00000000E+0	
31.738281	0.00000000E+0	
32.226563	0.00000000E+0	
32.714844	0.00000000E+0	
33.203125	0.00000000E+0	
33.691406	0.00000000E+0	
34.179688	0.00000000E+0	
34.667969	0.00000000E+0	
35.156250	0.00000000E+0	
35.644531	0.00000000E+0	
36.132813	0.00000000E+0	
36.621094	0.00000000E+0	
37.109375	0.00000000E+0	
37.597656	0.00000000E+0	
38.085938	0.00000000E+0	
38.574219	0.00000000E+0	
39.06250	0.00000000E+0	
39.550781	0.00000000E+0	
40.039063	0.00000000E+0	
40.527344	0.00000000E+0	
41.015625	0.00000000E+0	
41.503906	6.00000000E+0	
41.992188	1.70000000E+1	
42.480469	1.60000000E+1	
42.968750	1.30000000E+1	
43.457031	1.80000000E+1	
43.945313	1.00000000E+1	
44.433594	5.00000000E+0	
44.921875	1.20000000E+1	
45.410156	1.00000000E+1	
45.898438	1.00000000E+1	
46.386719	1.60000000E+1	
46.8750	1.30000000E+1	
47.363281	1.40000000E+1	
47.851563	1.10000000E+1	
48.339844	1.70000000E+1	
48.828125	1.60000000E+1	
49.316406	1.50000000E+1	
49.804688	1.20000000E+1	
50.292969	1.80000000E+1	
50.781250	2.30000000E+1	
51.269531	1.30000000E+1	
51.757813	1.50000000E+1	
52.246094	1.40000000E+1	
52.734375	1.10000000E+1	
53.222656	1.20000000E+1	
53.710938	1.30000000E+1	
54.199219	1.80000000E+1	
54.68750	1.40000000E+1	
55.175781	1.00000000E+1	
55.664063	6.00000000E+0	
56.152344	1.10000000E+1	
56.640625	8.00000000E+0	
57.128906	8.00000000E+0	
57.617188	1.60000000E+1	
58.105469	1.30000000E+1	
58.593750	8.00000000E+0	
59.082031	1.20000000E+1	
59.570313	1.20000000E+1	
60.058594	1.50000000E+1	
60.546875	1.00000000E+1	
61.035156	2.90000000E+1	
61.523438	3.80000000E+1	
62.011719	6.90000000E+1	
62.50	8.40000000E+1	
62.988281	6.60000000E+1	
63.476563	5.30000000E+1	
63.964844	4.70000000E+1	
64.453125	3.60000000E+1	
64.941406	2.70000000E+1	
65.429688	5.00000000E+1	
65.917969	4.30000000E+1	
66.406250	3.60000000E+1	
66.894531	3.70000000E+1	
67.382813	4.10000000E+1	
67.871094	3.60000000E+1	
68.359375	3.40000000E+1	
68.847656	3.20000000E+1	
69.335938	3.80000000E+1	
69.824219	3.10000000E+1	
70.31250	3.00000000E+1	
70.800781	4.50000000E+1	
71.289063	2.50000000E+1	
71.777344	3.30000000E+1	
72.265625	3.20000000E+1	
72.753906	4.60000000E+1	
73.242188	3.20000000E+1	
73.730469	3.50000000E+1	
74.218750	2.70000000E+1	
74.707031	2.50000000E+1	
75.195313	3.40000000E+1	
75.683594	3.40000000E+1	
76.171875	4.30000000E+1	
76.660156	2.60000000E+1	
77.148438	2.80000000E+1	
77.636719	3.80000000E+1	
78.1250	4.10000000E+1	
78.613281	3.10000000E+1	
79.101563	3.10000000E+1	
79.589844	3.10000000E+1	
80.078125	3.00000000E+1	
80.566406	3.90000000E+1	
81.054688	3.90000000E+1	
81.542969	3.70000000E+1	
82.031250	3.30000000E+1	
82.519531	2.50000000E+1	
83.007813	2.70000000E+1	
83.496094	2.40000000E+1	
83.984375	2.30000000E+1	
84.472656	1.60000000E+1	
84.960938	2.20000000E+1	
85.449219	2.90000000E+1	
85.93750	3.00000000E+1	
86.425781	3.40000000E+1	
86.914063	2.30000000E+1	
87.402344	3.40000000E+1	
87.890625	2.80000000E+1	
88.378906	4.20000000E+1	
88.867188	3.40000000E+1	
89.355469	2.70000000E+1	
89.843750	3.60000000E+1	
90.332031	3.40000000E+1	
90.820313	4.30000000E+1	
91.308594	2.80000000E+1	
91.796875	3.30000000E+1	
92.285156	3.40000000E+1	
92.773438	2.60000000E+1	
93.261719	3.10000000E+1	
93.750	2.70000000E+1	
94.238281	2.80000000E+1	
94.726563	2.40000000E+1	
95.214844	3.20000000E+1	
95.703125	2.30000000E+1	
96.191406	2.80000000E+1	
96.679688	2.80000000E+1	
97.167969	3.20000000E+1	
97.656250	3.20000000E+1	
98.144531	3.40000000E+1	
98.632813	3.70000000E+1	
99.121094	2.20000000E+1	
99.609375	2.90000000E+1	
100.097660	2.10000000E+1	
100.585940	2.40000000E+1	
101.074220	2.50000000E+1	
101.562500	3.70000000E+1	
102.050780	2.50000000E+1	
102.539060	2.80000000E+1	
103.027340	2.70000000E+1	
103.515630	2.50000000E+1	
104.003910	2.80000000E+1	
104.492190	3.00000000E+1	
104.980470	2.50000000E+1	
105.468750	2.50000000E+1	
105.95700	2.50000000E+1	
106.445310	2.70000000E+1	
106.933590	2.90000000E+1	
107.421880	2.90000000E+1	
107.910160	3.10000000E+1	
108.398440	2.10000000E+1	
108.886720	3.00000000E+1	
109.37500	3.30000000E+1	
109.863280	3.50000000E+1	
110.351560	2.80000000E+1	
110.839840	1.80000000E+1	
111.328130	3.70000000E+1	
111.816410	3.60000000E+1	
112.304690	3.30000000E+1	
112.79300	3.10000000E+1	
113.281250	3.10000000E+1	
113.769530	2.00000000E+1	
114.257810	3.10000000E+1	
114.746090	2.70000000E+1	
115.234380	2.70000000E+1	
115.722660	2.40000000E+1	
116.210940	2.20000000E+1	
116.699220	3.80000000E+1	
117.187500	1.80000000E+1	
117.675780	2.30000000E+1	
118.164060	2.60000000E+1	
118.652340	3.10000000E+1	
119.140630	2.20000000E+1	
119.628910	2.50000000E+1	
120.117190	3.00000000E+1	
120.605470	2.70000000E+1	
121.093750	2.40000000E+1	
121.58200	3.00000000E+1	
122.070310	3.40000000E+1	
122.558590	3.20000000E+1	
123.046880	3.10000000E+1	
123.535160	2.70000000E+1	
124.023440	2.70000000E+1	
124.511720	3.40000000E+1	
125.00	3.10000000E+1	
125.488280	3.10000000E+1	
125.976560	3.50000000E+1	
126.464840	2.30000000E+1	
126.953130	4.00000000E+1	
127.441410	3.40000000E+1	
127.929690	3.10000000E+1	
128.41800	2.40000000E+1	
128.906250	2.60000000E+1	
129.394530	2.90000000E+1	
129.882810	2.80000000E+1	
130.371090	2.60000000E+1	
130.859380	3.20000000E+1	
131.347660	2.50000000E+1	
131.835940	2.50000000E+1	
132.324220	3.40000000E+1	
132.812500	2.60000000E+1	
133.300780	2.50000000E+1	
133.789060	2.30000000E+1	
134.277340	2.80000000E+1	
134.765630	2.80000000E+1	
135.253910	2.40000000E+1	
135.742190	2.80000000E+1	
136.230470	2.80000000E+1	
136.718750	1.90000000E+1	
137.20700	2.60000000E+1	
137.695310	2.60000000E+1	
138.183590	3.20000000E+1	
138.671880	2.10000000E+1	
139.160160	2.00000000E+1	
139.648440	2.30000000E+1	
140.136720	2.80000000E+1	
140.62500	2.10000000E+1	
141.113280	2.40000000E+1	
141.601560	2.00000000E+1	
142.089840	2.60000000E+1	
142.578130	2.90000000E+1	
143.066410	2.10000000E+1	
143.554690	2.80000000E+1	
144.04300	2.90000000E+1	
144.531250	2.80000000E+1	
145.019530	2.40000000E+1	
145.507810	1.50000000E+1	
145.996090	2.80000000E+1	
146.484380	1.60000000E+1	
146.972660	1.90000000E+1	
147.460940	2.90000000E+1	
147.949220	3.60000000E+1	
148.437500	2.90000000E+1	
148.925780	3.30000000E+1	
149.414060	2.30000000E+1	
149.902340	2.50000000E+1	
150.390630	3.10000000E+1	
150.878910	2.80000000E+1	
151.367190	2.90000000E+1	
151.855470	2.70000000E+1	
152.343750	3.00000000E+1	
152.83200	3.00000000E+1	
153.320310	2.50000000E+1	
153.808590	2.60000000E+1	
154.296880	1.40000000E+1	
154.785160	2.30000000E+1	
155.273440	3.00000000E+1	
155.761720	1.60000000E+1	
156.2500	3.10000000E+1	
156.738280	2.60000000E+1	
157.226560	2.80000000E+1	
157.714840	1.70000000E+1	
158.203130	1.50000000E+1	
158.691410	3.10000000E+1	
159.179690	2.00000000E+1	
159.66800	2.70000000E+1	
160.156250	2.50000000E+1	
160.644530	2.60000000E+1	
161.132810	3.00000000E+1	
161.621090	3.10000000E+1	
162.109380	2.70000000E+1	
162.597660	2.70000000E+1	
163.085940	2.40000000E+1	
163.574220	3.20000000E+1	
164.062500	3.20000000E+1	
164.550780	3.10000000E+1	
165.039060	2.70000000E+1	
165.527340	3.00000000E+1	
166.015630	2.60000000E+1	
166.503910	3.30000000E+1	
166.992190	2.70000000E+1	
167.480470	2.60000000E+1	
167.968750	3.20000000E+1	
168.45700	2.80000000E+1	
168.945310	3.10000000E+1	
169.433590	2.90000000E+1	
169.921880	2.50000000E+1	
170.410160	2.40000000E+1	
170.898440	2.10000000E+1	
171.386720	3.80000000E+1	
171.87500	1.80000000E+1	
172.363280	2.20000000E+1	
172.851560	2.00000000E+1	
173.339840	1.80000000E+1	
173.828130	3.20000000E+1	
174.316410	2.00000000E+1	
174.804690	3.10000000E+1	
175.29300	3.50000000E+1	
175.781250	2.80000000E+1	
176.269530	2.20000000E+1	
176.757810	2.20000000E+1	
177.246090	2.80000000E+1	
177.734380	2.50000000E+1	
178.222660	1.80000000E+1	
178.710940	1.70000000E+1	
179.199220	2.00000000E+1	
179.687500	2.60000000E+1	
180.175780	2.40000000E+1	
180.664060	2.70000000E+1	
181.152340	3.10000000E+1	
181.640630	1.90000000E+1	
182.128910	2.20000000E+1	
182.617190	2.10000000E+1	
183.105470	2.80000000E+1	
183.593750	2.30000000E+1	
184.08200	2.80000000E+1	
184.570310	2.90000000E+1	
185.058590	3.70000000E+1	
185.546880	2.40000000E+1	
186.035160	2.00000000E+1	
186.523440	2.60000000E+1	
187.011720	2.90000000E+1	
187.500	2.20000000E+1	
187.988280	2.10000000E+1	
188.476560	3.30000000E+1	
188.964840	2.30000000E+1	
189.453130	2.50000000E+1	
189.941410	2.90000000E+1	
190.429690	3.40000000E+1	
190.91800	3.60000000E+1	
191.406250	2.60000000E+1	
191.894530	3.10000000E+1	
192.382810	3.20000000E+1	
192.871090	2.00000000E+1	
193.359380	2.10000000E+1	
193.847660	1.90000000E+1	
194.335940	2.40000000E+1	
194.824220	1.90000000E+1	
195.312500	3.20000000E+1	
195.800780	2.70000000E+1	
196.289060	2.50000000E+1	
196.777340	2.70000000E+1	
197.265630	2.90000000E+1	
197.753910	2.70000000E+1	
198.242190	2.60000000E+1	
198.730470	2.40000000E+1	
199.218750	2.60000000E+1	
199.70700	3.20000000E+1	
200.195310	2.70000000E+1	
200.683590	2.80000000E+1	
201.171880	2.60000000E+1	
201.660160	2.70000000E+1	
202.148440	2.60000000E+1	
202.636720	2.90000000E+1	
203.12500	2.50000000E+1	
203.613280	2.20000000E+1	
204.101560	2.30000000E+1	
204.589840	2.30000000E+1	
205.078130	1.50000000E+1	
205.566410	2.80000000E+1	
206.054690	3.00000000E+1	
206.54300	2.70000000E+1	
207.031250	2.30000000E+1	
207.519530	2.50000000E+1	
208.007810	2.80000000E+1	
208.496090	3.00000000E+1	
208.984380	2.30000000E+1	
209.472660	2.10000000E+1	
209.960940	3.00000000E+1	
210.449220	2.10000000E+1	
210.937500	3.90000000E+1	
211.425780	2.20000000E+1	
211.914060	2.60000000E+1	
212.402340	2.50000000E+1	
212.890630	3.00000000E+1	
213.378910	2.00000000E+1	
213.867190	2.90000000E+1	
214.355470	2.60000000E+1	
214.843750	3.00000000E+1	
215.33200	3.50000000E+1	
215.820310	1.80000000E+1	
216.308590	2.40000000E+1	
216.796880	2.80000000E+1	
217.285160	2.80000000E+1	
217.773440	2.30000000E+1	
218.261720	2.30000000E+1	
218.7500	2.70000000E+1	
219.238280	1.80000000E+1	
219.726560	2.00000000E+1	
220.214840	1.70000000E+1	
220.703130	1.70000000E+1	
221.191410	2.80000000E+1	
221.679690	1.70000000E+1	
222.16800	2.50000000E+1	
222.656250	2.10000000E+1	
223.144530	2.40000000E+1	
223.632810	2.70000000E+1	
224.121090	2.00000000E+1	
224.609380	2.20000000E+1	
225.097660	2.40000000E+1	
225.585940	1.30000000E+1	
226.074220	3.30000000E+1	
226.562500	1.60000000E+1	
227.050780	2.10000000E+1	
227.539060	2.80000000E+1	
228.027340	2.30000000E+1	
228.515630	2.80000000E+1	
229.003910	2.20000000E+1	
229.492190	2.00000000E+1	
229.980470	1.80000000E+1	
230.468750	2.20000000E+1	
230.95700	1.20000000E+1	
231.445310	2.50000000E+1	
231.933590	2.40000000E+1	
232.421880	2.30000000E+1	
232.910160	1.70000000E+1	
233.398440	2.40000000E+1	
233.886720	3.10000000E+1	
234.37500	1.50000000E+1	
234.863280	2.80000000E+1	
235.351560	3.00000000E+1	
235.839840	3.00000000E+1	
236.328130	2.60000000E+1	
236.816410	2.50000000E+1	
237.304690	2.20000000E+1	
237.79300	2.50000000E+1	
238.281250	1.60000000E+1	
238.769530	2.50000000E+1	
239.257810	2.10000000E+1	
239.746090	1.80000000E+1	
240.234380	3.10000000E+1	
240.722660	3.30000000E+1	
241.210940	1.90000000E+1	
241.699220	1.90000000E+1	
242.187500	1.70000000E+1	
242.675780	1.90000000E+1	
243.164060	2.30000000E+1	
243.652340	2.20000000E+1	
244.140630	2.90000000E+1	
244.628910	2.00000000E+1	
245.117190	2.80000000E+1	
245.605470	2.20000000E+1	
246.093750	2.50000000E+1	
246.58200	2.90000000E+1	
247.070310	2.50000000E+1	
247.558590	2.50000000E+1	
248.046880	1.80000000E+1	
248.535160	2.90000000E+1	
249.023440	1.70000000E+1	
249.511720	1.70000000E+1	
250.00	1.60000000E+1	
250.488280	2.90000000E+1	
250.976560	2.20000000E+1	
251.464840	2.10000000E+1	
251.953130	2.20000000E+1	
252.441410	2.10000000E+1	
252.929690	2.50000000E+1	
253.41800	2.00000000E+1	
253.906250	3.00000000E+1	
254.394530	1.70000000E+1	
254.882810	2.00000000E+1	
255.371090	2.20000000E+1	
255.859380	2.40000000E+1	
256.347660	2.40000000E+1	
256.835940	2.10000000E+1	
257.324220	1.20000000E+1	
257.812500	2.30000000E+1	
258.300780	2.20000000E+1	
258.789060	2.80000000E+1	
259.277340	2.40000000E+1	
259.765630	2.20000000E+1	
260.253910	1.90000000E+1	
260.742190	3.30000000E+1	
261.230470	2.70000000E+1	
261.718750	2.60000000E+1	
262.20700	2.00000000E+1	
262.695310	3.00000000E+1	
263.183590	2.60000000E+1	
263.671880	2.20000000E+1	
264.160160	2.20000000E+1	
264.648440	2.40000000E+1	
265.136720	3.00000000E+1	
265.62500	2.40000000E+1	
266.113280	3.20000000E+1	
266.601560	1.90000000E+1	
267.089840	2.10000000E+1	
267.578130	2.10000000E+1	
268.066410	2.40000000E+1	
268.554690	1.20000000E+1	
269.04300	1.90000000E+1	
269.531250	2.70000000E+1	
270.019530	2.10000000E+1	
270.507810	2.80000000E+1	
270.996090	2.00000000E+1	
271.484380	2.80000000E+1	
271.972660	2.50000000E+1	
272.460940	1.90000000E+1	
272.949220	2.70000000E+1	
273.437500	2.90000000E+1	
273.925780	2.50000000E+1	
274.414060	2.40000000E+1	
274.902340	2.30000000E+1	
275.390630	2.60000000E+1	
275.878910	2.90000000E+1	
276.367190	1.70000000E+1	
276.855470	2.50000000E+1	
277.343750	1.80000000E+1	
277.83200	2.40000000E+1	
278.320310	2.50000000E+1	
278.808590	2.50000000E+1	
279.296880	2.20000000E+1	
279.785160	2.10000000E+1	
280.273440	2.80000000E+1	
280.761720	2.50000000E+1	
281.2500	1.60000000E+1	
281.738280	2.20000000E+1	
282.226560	2.60000000E+1	
282.714840	2.80000000E+1	
283.203130	2.30000000E+1	
283.691410	2.30000000E+1	
284.179690	3.00000000E+1	
284.66800	2.40000000E+1	
285.156250	1.60000000E+1	
285.644530	1.60000000E+1	
286.132810	1.80000000E+1	
286.621090	2.80000000E+1	
287.109380	3.70000000E+1	
287.597660	2.60000000E+1	
288.085940	3.00000000E+1	
288.574220	1.50000000E+1	
289.062500	2.80000000E+1	
289.550780	1.60000000E+1	
290.039060	2.50000000E+1	
290.527340	2.70000000E+1	
291.015630	2.70000000E+1	
291.503910	2.70000000E+1	
291.992190	1.50000000E+1	
292.480470	2.50000000E+1	
292.968750	2.70000000E+1	
293.45700	2.60000000E+1	
293.945310	2.40000000E+1	
294.433590	2.70000000E+1	
294.921880	3.30000000E+1	
295.410160	2.20000000E+1	
295.898440	2.20000000E+1	
296.386720	2.70000000E+1	
296.87500	3.00000000E+1	
297.363280	2.20000000E+1	
297.851560	2.10000000E+1	
298.339840	2.40000000E+1	
298.828130	2.10000000E+1	
299.316410	2.40000000E+1	
299.804690	2.30000000E+1	
300.29300	2.70000000E+1	
300.781250	1.70000000E+1	
301.269530	2.10000000E+1	
301.757810	2.10000000E+1	
302.246090	1.50000000E+1	
302.734380	2.60000000E+1	
303.222660	2.50000000E+1	
303.710940	1.60000000E+1	
304.199220	2.40000000E+1	
304.687500	3.20000000E+1	
305.175780	2.40000000E+1	
305.664060	1.70000000E+1	
306.152340	3.00000000E+1	
306.640630	2.00000000E+1	
307.128910	2.50000000E+1	
307.617190	2.00000000E+1	
308.105470	3.10000000E+1	
308.593750	2.60000000E+1	
309.08200	2.90000000E+1	
309.570310	2.40000000E+1	
310.058590	2.70000000E+1	
310.546880	2.10000000E+1	
311.035160	2.30000000E+1	
311.523440	2.60000000E+1	
312.011720	3.10000000E+1	
312.500	1.70000000E+1	
312.988280	2.40000000E+1	
313.476560	2.90000000E+1	
313.964840	3.00000000E+1	
314.453130	3.00000000E+1	
314.941410	2.50000000E+1	
315.429690	2.90000000E+1	
315.91800	1.50000000E+1	
316.406250	3.30000000E+1	
316.894530	3.00000000E+1	
317.382810	2.50000000E+1	
317.871090	2.10000000E+1	
318.359380	1.10000000E+1	
318.847660	2.20000000E+1	
319.335940	2.60000000E+1	
319.824220	2.20000000E+1	
320.312500	1.60000000E+1	
320.800780	2.60000000E+1	
321.289060	2.20000000E+1	
321.777340	3.40000000E+1	
322.265630	3.10000000E+1	
322.753910	2.60000000E+1	
323.242190	2.20000000E+1	
323.730470	2.60000000E+1	
324.218750	2.20000000E+1	
324.70700	2.60000000E+1	
325.195310	1.60000000E+1	
325.683590	2.50000000E+1	
326.171880	1.50000000E+1	
326.660160	2.90000000E+1	
327.148440	1.90000000E+1	
327.636720	2.60000000E+1	
328.12500	1.90000000E+1	
328.613280	1.90000000E+1	
329.101560	2.30000000E+1	
329.589840	2.80000000E+1	
330.078130	2.10000000E+1	
330.566410	3.20000000E+1	
331.054690	1.60000000E+1	
331.54300	2.50000000E+1	
332.031250	2.80000000E+1	
332.519530	2.00000000E+1	
333.007810	2.40000000E+1	
333.496090	2.80000000E+1	
333.984380	2.20000000E+1	
334.472660	2.20000000E+1	
334.960940	2.40000000E+1	
335.449220	1.90000000E+1	
335.937500	2.50000000E+1	
336.425780	2.20000000E+1	
336.914060	2.10000000E+1	
337.402340	2.10000000E+1	
337.890630	2.90000000E+1	
338.378910	1.30000000E+1	
338.867190	3.20000000E+1	
339.355470	1.90000000E+1	
339.843750	2.50000000E+1	
340.33200	3.10000000E+1	
340.820310	2.20000000E+1	
341.308590	2.30000000E+1	
341.796880	2.00000000E+1	
342.285160	2.20000000E+1	
342.773440	2.90000000E+1	
343.261720	2.50000000E+1	
343.7500	1.10000000E+1	
344.238280	2.00000000E+1	
344.726560	2.30000000E+1	
345.214840	2.40000000E+1	
345.703130	3.00000000E+1	
346.191410	1.80000000E+1	
346.679690	2.60000000E+1	
347.16800	2.40000000E+1	
347.656250	2.10000000E+1	
348.144530	2.80000000E+1	
348.632810	3.10000000E+1	
349.121090	2.30000000E+1	
349.609380	2.00000000E+1	
350.097660	2.20000000E+1	
350.585940	2.20000000E+1	
351.074220	2.60000000E+1	
351.562500	1.80000000E+1	
352.050780	2.50000000E+1	
352.539060	2.40000000E+1	
353.027340	2.20000000E+1	
353.515630	3.00000000E+1	
354.003910	3.00000000E+1	
354.492190	2.40000000E+1	
354.980470	2.70000000E+1	
355.468750	1.90000000E+1	
355.95700	2.00000000E+1	
356.445310	2.50000000E+1	
356.933590	2.10000000E+1	
357.421880	3.10000000E+1	
357.910160	2.20000000E+1	
358.398440	1.90000000E+1	
358.886720	2.60000000E+1	
359.37500	2.30000000E+1	
359.863280	1.90000000E+1	
360.351560	3.20000000E+1	
360.839840	1.90000000E+1	
361.328130	3.00000000E+1	
361.816410	2.30000000E+1	
362.304690	2.90000000E+1	
362.79300	2.30000000E+1	
363.281250	1.50000000E+1	
363.769530	1.60000000E+1	
364.257810	2.50000000E+1	
364.746090	2.00000000E+1	
365.234380	2.50000000E+1	
365.722660	2.00000000E+1	
366.210940	2.30000000E+1	
366.699220	2.50000000E+1	
367.187500	3.10000000E+1	
367.675780	3.30000000E+1	
368.164060	2.40000000E+1	
368.652340	2.00000000E+1	
369.140630	2.60000000E+1	
369.628910	2.50000000E+1	
370.117190	2.80000000E+1	
370.605470	2.10000000E+1	
371.093750	2.30000000E+1	
371.58200	2.50000000E+1	
372.070310	1.50000000E+1	
372.558590	1.60000000E+1	
373.046880	1.60000000E+1	
373.535160	2.50000000E+1	
374.023440	1.20000000E+1	
374.511720	2.10000000E+1	
375.00	3.10000000E+1	
375.488280	2.00000000E+1	
375.976560	2.30000000E+1	
376.464840	2.20000000E+1	
376.953130	2.10000000E+1	
377.441410	1.80000000E+1	
377.929690	2.40000000E+1	
