Labels	APTMethylS_Br25_1	
Type	Time Scan	
Comment		
Start	0.00	
Stop	999.511720	
Step	0.48828125	
Fixed/Offset	 	
XAxis	Time(ns)	
YAxis	Counts	

0.00	0.00000000E+0	
0.48828125	0.00000000E+0	
0.97656250	0.00000000E+0	
1.4648438	0.00000000E+0	
1.9531250	0.00000000E+0	
2.4414063	0.00000000E+0	
2.9296875	0.00000000E+0	
3.4179688	0.00000000E+0	
3.906250	0.00000000E+0	
4.3945313	0.00000000E+0	
4.8828125	0.00000000E+0	
5.3710938	0.00000000E+0	
5.8593750	0.00000000E+0	
6.3476563	0.00000000E+0	
6.8359375	0.00000000E+0	
7.3242188	0.00000000E+0	
7.81250	0.00000000E+0	
8.3007813	0.00000000E+0	
8.7890625	0.00000000E+0	
9.2773438	0.00000000E+0	
9.7656250	0.00000000E+0	
10.253906	0.00000000E+0	
10.742188	0.00000000E+0	
11.230469	0.00000000E+0	
11.718750	0.00000000E+0	
12.207031	0.00000000E+0	
12.695313	0.00000000E+0	
13.183594	0.00000000E+0	
13.671875	0.00000000E+0	
14.160156	0.00000000E+0	
14.648438	0.00000000E+0	
15.136719	0.00000000E+0	
15.6250	0.00000000E+0	
16.113281	0.00000000E+0	
16.601563	0.00000000E+0	
17.089844	0.00000000E+0	
17.578125	0.00000000E+0	
18.066406	0.00000000E+0	
18.554688	0.00000000E+0	
19.042969	0.00000000E+0	
19.531250	0.00000000E+0	
20.019531	0.00000000E+0	
20.507813	0.00000000E+0	
20.996094	0.00000000E+0	
21.484375	0.00000000E+0	
21.972656	0.00000000E+0	
22.460938	0.00000000E+0	
22.949219	0.00000000E+0	
23.43750	0.00000000E+0	
23.925781	0.00000000E+0	
24.414063	0.00000000E+0	
24.902344	0.00000000E+0	
25.390625	0.00000000E+0	
25.878906	0.00000000E+0	
26.367188	0.00000000E+0	
26.855469	0.00000000E+0	
27.343750	0.00000000E+0	
27.832031	0.00000000E+0	
28.320313	0.00000000E+0	
28.808594	0.00000000E+0	
29.296875	0.00000000E+0	
29.785156	1.60000000E+1	
30.273438	7.10000000E+1	
30.761719	6.00000000E+1	
31.250	4.70000000E+1	
31.738281	5.60000000E+1	
32.226563	5.00000000E+1	
32.714844	4.00000000E+1	
33.203125	3.20000000E+1	
33.691406	3.50000000E+1	
34.179688	3.10000000E+1	
34.667969	3.60000000E+1	
35.156250	3.60000000E+1	
35.644531	4.70000000E+1	
36.132813	3.90000000E+1	
36.621094	3.60000000E+1	
37.109375	4.00000000E+1	
37.597656	4.70000000E+1	
38.085938	3.80000000E+1	
38.574219	3.70000000E+1	
39.06250	3.50000000E+1	
39.550781	3.40000000E+1	
40.039063	4.00000000E+1	
40.527344	2.70000000E+1	
41.015625	3.90000000E+1	
41.503906	4.00000000E+1	
41.992188	4.00000000E+1	
42.480469	2.80000000E+1	
42.968750	4.70000000E+1	
43.457031	3.10000000E+1	
43.945313	3.70000000E+1	
44.433594	4.10000000E+1	
44.921875	2.30000000E+1	
45.410156	3.40000000E+1	
45.898438	4.00000000E+1	
46.386719	4.50000000E+1	
46.8750	4.20000000E+1	
47.363281	3.30000000E+1	
47.851563	1.80000000E+1	
48.339844	4.20000000E+1	
48.828125	1.01000000E+2	
49.316406	3.54000000E+2	
49.804688	6.02000000E+2	
50.292969	7.04000000E+2	
50.781250	6.78000000E+2	
51.269531	5.79000000E+2	
51.757813	5.39000000E+2	
52.246094	4.30000000E+2	
52.734375	4.48000000E+2	
53.222656	4.18000000E+2	
53.710938	3.73000000E+2	
54.199219	3.95000000E+2	
54.68750	3.37000000E+2	
55.175781	3.70000000E+2	
55.664063	3.26000000E+2	
56.152344	3.03000000E+2	
56.640625	2.99000000E+2	
57.128906	2.98000000E+2	
57.617188	2.96000000E+2	
58.105469	2.86000000E+2	
58.593750	2.60000000E+2	
59.082031	2.75000000E+2	
59.570313	2.67000000E+2	
60.058594	2.80000000E+2	
60.546875	2.86000000E+2	
61.035156	2.23000000E+2	
61.523438	2.43000000E+2	
62.011719	2.16000000E+2	
62.50	2.26000000E+2	
62.988281	2.41000000E+2	
63.476563	2.25000000E+2	
63.964844	2.00000000E+2	
64.453125	2.20000000E+2	
64.941406	2.04000000E+2	
65.429688	2.05000000E+2	
65.917969	2.16000000E+2	
66.406250	2.18000000E+2	
66.894531	2.20000000E+2	
67.382813	1.78000000E+2	
67.871094	1.97000000E+2	
68.359375	2.21000000E+2	
68.847656	1.88000000E+2	
69.335938	1.99000000E+2	
69.824219	2.07000000E+2	
70.31250	1.95000000E+2	
70.800781	2.00000000E+2	
71.289063	2.02000000E+2	
71.777344	1.87000000E+2	
72.265625	1.83000000E+2	
72.753906	1.67000000E+2	
73.242188	1.66000000E+2	
73.730469	1.83000000E+2	
74.218750	1.44000000E+2	
74.707031	1.68000000E+2	
75.195313	1.70000000E+2	
75.683594	1.59000000E+2	
76.171875	1.52000000E+2	
76.660156	1.89000000E+2	
77.148438	1.66000000E+2	
77.636719	1.67000000E+2	
78.1250	1.60000000E+2	
78.613281	1.47000000E+2	
79.101563	1.77000000E+2	
79.589844	1.51000000E+2	
80.078125	1.50000000E+2	
80.566406	1.60000000E+2	
81.054688	1.45000000E+2	
81.542969	1.57000000E+2	
82.031250	1.50000000E+2	
82.519531	1.61000000E+2	
83.007813	1.53000000E+2	
83.496094	1.45000000E+2	
83.984375	1.42000000E+2	
84.472656	1.49000000E+2	
84.960938	1.48000000E+2	
85.449219	1.72000000E+2	
85.93750	1.69000000E+2	
86.425781	1.47000000E+2	
86.914063	1.50000000E+2	
87.402344	1.35000000E+2	
87.890625	1.53000000E+2	
88.378906	1.42000000E+2	
88.867188	1.45000000E+2	
89.355469	1.29000000E+2	
89.843750	1.31000000E+2	
90.332031	1.48000000E+2	
90.820313	1.54000000E+2	
91.308594	1.56000000E+2	
91.796875	1.38000000E+2	
92.285156	1.43000000E+2	
92.773438	1.49000000E+2	
93.261719	1.28000000E+2	
93.750	1.71000000E+2	
94.238281	1.29000000E+2	
94.726563	1.47000000E+2	
95.214844	1.26000000E+2	
95.703125	1.17000000E+2	
96.191406	1.24000000E+2	
96.679688	1.31000000E+2	
97.167969	1.31000000E+2	
97.656250	1.23000000E+2	
98.144531	1.34000000E+2	
98.632813	1.20000000E+2	
99.121094	1.31000000E+2	
99.609375	1.53000000E+2	
100.097660	1.38000000E+2	
100.585940	1.53000000E+2	
101.074220	1.25000000E+2	
101.562500	1.23000000E+2	
102.050780	1.48000000E+2	
102.539060	1.45000000E+2	
103.027340	1.15000000E+2	
103.515630	1.57000000E+2	
104.003910	1.24000000E+2	
104.492190	1.10000000E+2	
104.980470	1.20000000E+2	
105.468750	1.36000000E+2	
105.95700	1.37000000E+2	
106.445310	1.20000000E+2	
106.933590	1.18000000E+2	
107.421880	1.27000000E+2	
107.910160	1.22000000E+2	
108.398440	1.24000000E+2	
108.886720	1.32000000E+2	
109.37500	1.10000000E+2	
109.863280	1.30000000E+2	
110.351560	1.07000000E+2	
110.839840	1.14000000E+2	
111.328130	1.16000000E+2	
111.816410	1.23000000E+2	
112.304690	1.04000000E+2	
112.79300	1.22000000E+2	
113.281250	1.05000000E+2	
113.769530	1.11000000E+2	
114.257810	1.27000000E+2	
114.746090	1.23000000E+2	
115.234380	1.30000000E+2	
115.722660	1.13000000E+2	
116.210940	1.25000000E+2	
116.699220	1.18000000E+2	
117.187500	9.80000000E+1	
117.675780	1.20000000E+2	
118.164060	1.08000000E+2	
118.652340	1.15000000E+2	
119.140630	1.32000000E+2	
119.628910	1.30000000E+2	
120.117190	1.07000000E+2	
120.605470	1.06000000E+2	
121.093750	1.24000000E+2	
121.58200	1.23000000E+2	
122.070310	1.13000000E+2	
122.558590	1.07000000E+2	
123.046880	1.06000000E+2	
123.535160	1.10000000E+2	
124.023440	1.19000000E+2	
124.511720	1.21000000E+2	
125.00	1.33000000E+2	
125.488280	1.13000000E+2	
125.976560	1.00000000E+2	
126.464840	1.04000000E+2	
126.953130	9.50000000E+1	
127.441410	1.08000000E+2	
127.929690	1.24000000E+2	
128.41800	1.05000000E+2	
128.906250	1.09000000E+2	
129.394530	1.05000000E+2	
129.882810	1.32000000E+2	
130.371090	1.21000000E+2	
130.859380	1.13000000E+2	
131.347660	1.14000000E+2	
131.835940	8.90000000E+1	
132.324220	1.24000000E+2	
132.812500	1.09000000E+2	
133.300780	1.01000000E+2	
133.789060	1.04000000E+2	
134.277340	9.70000000E+1	
134.765630	1.03000000E+2	
135.253910	1.04000000E+2	
135.742190	1.08000000E+2	
136.230470	1.13000000E+2	
136.718750	1.04000000E+2	
137.20700	9.70000000E+1	
137.695310	1.04000000E+2	
138.183590	8.60000000E+1	
138.671880	1.19000000E+2	
139.160160	1.12000000E+2	
139.648440	1.17000000E+2	
140.136720	8.90000000E+1	
140.62500	1.08000000E+2	
141.113280	1.08000000E+2	
141.601560	1.11000000E+2	
142.089840	1.06000000E+2	
142.578130	9.50000000E+1	
143.066410	9.30000000E+1	
143.554690	1.02000000E+2	
144.04300	1.04000000E+2	
144.531250	9.60000000E+1	
145.019530	9.40000000E+1	
145.507810	1.07000000E+2	
145.996090	1.02000000E+2	
146.484380	1.27000000E+2	
146.972660	1.09000000E+2	
147.460940	9.50000000E+1	
147.949220	1.01000000E+2	
148.437500	9.10000000E+1	
148.925780	9.20000000E+1	
149.414060	9.20000000E+1	
149.902340	1.09000000E+2	
150.390630	1.15000000E+2	
150.878910	9.50000000E+1	
151.367190	1.09000000E+2	
151.855470	8.50000000E+1	
152.343750	9.60000000E+1	
152.83200	1.00000000E+2	
153.320310	6.80000000E+1	
153.808590	8.20000000E+1	
154.296880	1.00000000E+2	
154.785160	1.00000000E+2	
155.273440	9.10000000E+1	
155.761720	1.09000000E+2	
156.2500	8.60000000E+1	
156.738280	9.80000000E+1	
157.226560	9.40000000E+1	
157.714840	9.60000000E+1	
158.203130	1.04000000E+2	
158.691410	8.20000000E+1	
159.179690	9.60000000E+1	
159.66800	1.07000000E+2	
160.156250	9.90000000E+1	
160.644530	9.60000000E+1	
161.132810	8.90000000E+1	
161.621090	9.90000000E+1	
162.109380	9.40000000E+1	
162.597660	9.20000000E+1	
163.085940	1.20000000E+2	
163.574220	8.20000000E+1	
164.062500	1.02000000E+2	
164.550780	9.60000000E+1	
165.039060	8.70000000E+1	
165.527340	9.70000000E+1	
166.015630	9.90000000E+1	
166.503910	8.60000000E+1	
166.992190	1.03000000E+2	
167.480470	9.30000000E+1	
167.968750	8.50000000E+1	
168.45700	9.40000000E+1	
168.945310	8.90000000E+1	
169.433590	1.01000000E+2	
169.921880	1.04000000E+2	
170.410160	9.50000000E+1	
170.898440	1.06000000E+2	
171.386720	9.20000000E+1	
171.87500	8.50000000E+1	
172.363280	9.80000000E+1	
172.851560	1.17000000E+2	
173.339840	8.40000000E+1	
173.828130	8.00000000E+1	
174.316410	9.10000000E+1	
174.804690	8.80000000E+1	
175.29300	8.30000000E+1	
175.781250	6.70000000E+1	
176.269530	1.12000000E+2	
176.757810	7.70000000E+1	
177.246090	8.40000000E+1	
177.734380	9.10000000E+1	
178.222660	9.00000000E+1	
178.710940	8.50000000E+1	
179.199220	8.90000000E+1	
179.687500	8.70000000E+1	
180.175780	7.70000000E+1	
180.664060	9.60000000E+1	
181.152340	9.10000000E+1	
181.640630	8.90000000E+1	
182.128910	1.02000000E+2	
182.617190	7.60000000E+1	
183.105470	7.40000000E+1	
183.593750	9.80000000E+1	
184.08200	8.60000000E+1	
184.570310	9.00000000E+1	
185.058590	1.00000000E+2	
185.546880	1.00000000E+2	
186.035160	7.50000000E+1	
186.523440	8.10000000E+1	
187.011720	9.60000000E+1	
187.500	8.50000000E+1	
187.988280	8.70000000E+1	
188.476560	9.20000000E+1	
188.964840	7.80000000E+1	
189.453130	8.40000000E+1	
189.941410	9.10000000E+1	
190.429690	7.60000000E+1	
190.91800	7.80000000E+1	
191.406250	8.50000000E+1	
191.894530	8.40000000E+1	
192.382810	8.10000000E+1	
192.871090	1.00000000E+2	
193.359380	8.00000000E+1	
193.847660	8.60000000E+1	
194.335940	8.80000000E+1	
194.824220	8.40000000E+1	
195.312500	7.60000000E+1	
195.800780	8.20000000E+1	
196.289060	8.50000000E+1	
196.777340	9.30000000E+1	
197.265630	7.80000000E+1	
197.753910	8.10000000E+1	
198.242190	8.50000000E+1	
198.730470	8.70000000E+1	
199.218750	7.90000000E+1	
199.70700	8.80000000E+1	
200.195310	9.30000000E+1	
200.683590	8.00000000E+1	
201.171880	7.70000000E+1	
201.660160	6.90000000E+1	
202.148440	8.20000000E+1	
202.636720	8.90000000E+1	
203.12500	9.30000000E+1	
203.613280	8.70000000E+1	
204.101560	8.60000000E+1	
204.589840	7.50000000E+1	
205.078130	7.60000000E+1	
205.566410	8.10000000E+1	
206.054690	8.20000000E+1	
206.54300	9.40000000E+1	
207.031250	7.40000000E+1	
207.519530	9.30000000E+1	
208.007810	7.10000000E+1	
208.496090	7.70000000E+1	
208.984380	7.70000000E+1	
209.472660	8.20000000E+1	
209.960940	8.10000000E+1	
210.449220	8.60000000E+1	
210.937500	9.80000000E+1	
211.425780	1.04000000E+2	
211.914060	6.20000000E+1	
212.402340	7.30000000E+1	
212.890630	7.50000000E+1	
213.378910	8.90000000E+1	
213.867190	6.80000000E+1	
214.355470	8.80000000E+1	
214.843750	8.40000000E+1	
215.33200	6.90000000E+1	
215.820310	7.80000000E+1	
216.308590	1.01000000E+2	
216.796880	6.60000000E+1	
217.285160	7.60000000E+1	
217.773440	6.60000000E+1	
218.261720	8.50000000E+1	
218.7500	7.20000000E+1	
219.238280	7.70000000E+1	
219.726560	8.50000000E+1	
220.214840	7.90000000E+1	
220.703130	8.00000000E+1	
221.191410	7.40000000E+1	
221.679690	6.90000000E+1	
222.16800	8.80000000E+1	
222.656250	7.70000000E+1	
223.144530	7.10000000E+1	
223.632810	7.70000000E+1	
224.121090	7.80000000E+1	
224.609380	7.90000000E+1	
225.097660	8.20000000E+1	
225.585940	8.80000000E+1	
226.074220	8.20000000E+1	
226.562500	8.40000000E+1	
227.050780	9.30000000E+1	
227.539060	8.00000000E+1	
228.027340	9.20000000E+1	
228.515630	7.50000000E+1	
229.003910	7.30000000E+1	
229.492190	6.60000000E+1	
229.980470	7.10000000E+1	
230.468750	6.60000000E+1	
230.95700	7.90000000E+1	
231.445310	6.70000000E+1	
231.933590	7.00000000E+1	
232.421880	8.50000000E+1	
232.910160	8.80000000E+1	
233.398440	8.60000000E+1	
233.886720	7.50000000E+1	
234.37500	7.40000000E+1	
234.863280	7.00000000E+1	
235.351560	6.60000000E+1	
235.839840	7.50000000E+1	
236.328130	6.50000000E+1	
236.816410	8.40000000E+1	
237.304690	7.20000000E+1	
237.79300	7.50000000E+1	
238.281250	7.80000000E+1	
238.769530	8.20000000E+1	
239.257810	6.70000000E+1	
239.746090	9.50000000E+1	
240.234380	6.90000000E+1	
240.722660	8.70000000E+1	
241.210940	7.80000000E+1	
241.699220	6.20000000E+1	
242.187500	8.10000000E+1	
242.675780	5.30000000E+1	
243.164060	6.90000000E+1	
243.652340	8.40000000E+1	
244.140630	8.50000000E+1	
244.628910	7.90000000E+1	
245.117190	6.80000000E+1	
245.605470	9.00000000E+1	
246.093750	7.30000000E+1	
246.58200	8.20000000E+1	
247.070310	7.60000000E+1	
247.558590	7.40000000E+1	
248.046880	6.50000000E+1	
248.535160	7.80000000E+1	
249.023440	8.40000000E+1	
249.511720	7.20000000E+1	
250.00	7.10000000E+1	
250.488280	7.00000000E+1	
250.976560	7.10000000E+1	
251.464840	7.00000000E+1	
251.953130	8.30000000E+1	
252.441410	7.70000000E+1	
252.929690	7.10000000E+1	
253.41800	6.30000000E+1	
253.906250	7.50000000E+1	
254.394530	7.20000000E+1	
254.882810	6.70000000E+1	
255.371090	7.20000000E+1	
255.859380	8.20000000E+1	
256.347660	6.90000000E+1	
256.835940	8.30000000E+1	
257.324220	8.00000000E+1	
257.812500	7.10000000E+1	
258.300780	8.50000000E+1	
258.789060	8.10000000E+1	
259.277340	8.70000000E+1	
259.765630	7.00000000E+1	
260.253910	7.70000000E+1	
260.742190	8.00000000E+1	
261.230470	7.50000000E+1	
261.718750	7.20000000E+1	
262.20700	6.10000000E+1	
262.695310	6.00000000E+1	
263.183590	8.00000000E+1	
263.671880	6.70000000E+1	
264.160160	8.10000000E+1	
264.648440	6.00000000E+1	
265.136720	6.00000000E+1	
265.62500	7.10000000E+1	
266.113280	6.80000000E+1	
266.601560	9.20000000E+1	
267.089840	7.00000000E+1	
267.578130	6.60000000E+1	
268.066410	6.30000000E+1	
268.554690	8.40000000E+1	
269.04300	7.80000000E+1	
269.531250	7.70000000E+1	
270.019530	7.70000000E+1	
270.507810	5.50000000E+1	
270.996090	8.80000000E+1	
271.484380	7.80000000E+1	
271.972660	5.40000000E+1	
272.460940	6.70000000E+1	
272.949220	7.10000000E+1	
273.437500	7.60000000E+1	
273.925780	5.60000000E+1	
274.414060	6.30000000E+1	
274.902340	6.20000000E+1	
275.390630	6.30000000E+1	
275.878910	8.60000000E+1	
276.367190	6.00000000E+1	
276.855470	8.70000000E+1	
277.343750	9.30000000E+1	
277.83200	7.40000000E+1	
278.320310	7.20000000E+1	
278.808590	5.30000000E+1	
279.296880	7.30000000E+1	
279.785160	7.00000000E+1	
280.273440	6.40000000E+1	
280.761720	6.70000000E+1	
281.2500	6.70000000E+1	
281.738280	5.50000000E+1	
282.226560	9.20000000E+1	
282.714840	6.80000000E+1	
283.203130	6.30000000E+1	
283.691410	6.50000000E+1	
284.179690	6.40000000E+1	
284.66800	7.90000000E+1	
285.156250	6.90000000E+1	
285.644530	5.90000000E+1	
286.132810	7.00000000E+1	
286.621090	8.70000000E+1	
287.109380	6.80000000E+1	
287.597660	7.70000000E+1	
288.085940	8.10000000E+1	
288.574220	8.10000000E+1	
289.062500	7.50000000E+1	
289.550780	6.10000000E+1	
290.039060	7.20000000E+1	
290.527340	8.30000000E+1	
291.015630	7.30000000E+1	
291.503910	8.20000000E+1	
291.992190	6.40000000E+1	
292.480470	5.90000000E+1	
292.968750	7.70000000E+1	
293.45700	6.80000000E+1	
293.945310	8.80000000E+1	
294.433590	6.40000000E+1	
294.921880	5.60000000E+1	
295.410160	8.10000000E+1	
295.898440	8.10000000E+1	
296.386720	6.50000000E+1	
296.87500	5.80000000E+1	
297.363280	7.50000000E+1	
297.851560	7.20000000E+1	
298.339840	6.20000000E+1	
298.828130	5.80000000E+1	
299.316410	6.30000000E+1	
299.804690	6.80000000E+1	
300.29300	6.70000000E+1	
300.781250	6.40000000E+1	
301.269530	6.00000000E+1	
301.757810	6.30000000E+1	
302.246090	8.50000000E+1	
302.734380	7.50000000E+1	
303.222660	6.20000000E+1	
303.710940	6.50000000E+1	
304.199220	5.70000000E+1	
304.687500	5.30000000E+1	
305.175780	7.10000000E+1	
305.664060	8.60000000E+1	
306.152340	6.60000000E+1	
306.640630	6.80000000E+1	
307.128910	6.50000000E+1	
307.617190	8.40000000E+1	
308.105470	6.50000000E+1	
308.593750	6.00000000E+1	
309.08200	6.80000000E+1	
309.570310	7.50000000E+1	
310.058590	6.00000000E+1	
310.546880	6.70000000E+1	
311.035160	6.40000000E+1	
311.523440	5.70000000E+1	
312.011720	8.00000000E+1	
312.500	6.80000000E+1	
312.988280	6.50000000E+1	
313.476560	6.80000000E+1	
313.964840	5.10000000E+1	
314.453130	6.20000000E+1	
314.941410	5.70000000E+1	
315.429690	8.30000000E+1	
315.91800	6.80000000E+1	
316.406250	5.90000000E+1	
316.894530	6.50000000E+1	
317.382810	5.80000000E+1	
317.871090	7.50000000E+1	
318.359380	6.50000000E+1	
318.847660	5.90000000E+1	
319.335940	6.10000000E+1	
319.824220	5.90000000E+1	
320.312500	7.60000000E+1	
320.800780	7.30000000E+1	
321.289060	6.40000000E+1	
321.777340	5.60000000E+1	
322.265630	6.40000000E+1	
322.753910	6.90000000E+1	
323.242190	7.70000000E+1	
323.730470	7.90000000E+1	
324.218750	5.70000000E+1	
324.70700	6.50000000E+1	
325.195310	7.90000000E+1	
325.683590	5.30000000E+1	
326.171880	6.00000000E+1	
326.660160	6.10000000E+1	
327.148440	8.50000000E+1	
327.636720	5.90000000E+1	
328.12500	6.70000000E+1	
328.613280	6.00000000E+1	
329.101560	4.60000000E+1	
329.589840	5.80000000E+1	
330.078130	5.40000000E+1	
330.566410	6.80000000E+1	
331.054690	5.90000000E+1	
331.54300	5.40000000E+1	
332.031250	7.20000000E+1	
332.519530	6.90000000E+1	
333.007810	7.50000000E+1	
333.496090	4.90000000E+1	
333.984380	6.00000000E+1	
334.472660	5.70000000E+1	
334.960940	7.10000000E+1	
335.449220	7.80000000E+1	
335.937500	7.10000000E+1	
336.425780	6.70000000E+1	
336.914060	6.70000000E+1	
337.402340	6.20000000E+1	
337.890630	6.40000000E+1	
338.378910	5.70000000E+1	
338.867190	6.40000000E+1	
339.355470	6.30000000E+1	
339.843750	5.50000000E+1	
340.33200	6.00000000E+1	
340.820310	5.60000000E+1	
341.308590	7.60000000E+1	
341.796880	6.50000000E+1	
342.285160	7.30000000E+1	
342.773440	5.50000000E+1	
343.261720	6.40000000E+1	
343.7500	5.90000000E+1	
344.238280	5.90000000E+1	
344.726560	6.20000000E+1	
345.214840	7.20000000E+1	
345.703130	6.40000000E+1	
346.191410	5.70000000E+1	
346.679690	5.20000000E+1	
347.16800	6.40000000E+1	
347.656250	6.20000000E+1	
348.144530	7.00000000E+1	
348.632810	7.60000000E+1	
349.121090	7.80000000E+1	
349.609380	6.70000000E+1	
350.097660	8.00000000E+1	
350.585940	6.80000000E+1	
351.074220	6.60000000E+1	
351.562500	6.00000000E+1	
352.050780	6.70000000E+1	
352.539060	5.20000000E+1	
353.027340	4.30000000E+1	
353.515630	6.60000000E+1	
354.003910	5.90000000E+1	
354.492190	6.30000000E+1	
354.980470	7.50000000E+1	
355.468750	6.20000000E+1	
355.95700	7.50000000E+1	
356.445310	6.90000000E+1	
356.933590	5.70000000E+1	
357.421880	5.50000000E+1	
357.910160	5.70000000E+1	
358.398440	6.00000000E+1	
358.886720	4.90000000E+1	
359.37500	6.20000000E+1	
359.863280	7.60000000E+1	
360.351560	6.20000000E+1	
360.839840	6.90000000E+1	
361.328130	5.70000000E+1	
361.816410	8.00000000E+1	
362.304690	7.00000000E+1	
362.79300	6.70000000E+1	
363.281250	5.30000000E+1	
363.769530	6.30000000E+1	
364.257810	5.90000000E+1	
364.746090	5.00000000E+1	
365.234380	6.00000000E+1	
365.722660	5.70000000E+1	
366.210940	5.50000000E+1	
366.699220	6.10000000E+1	
367.187500	6.60000000E+1	
367.675780	4.40000000E+1	
368.164060	6.40000000E+1	
368.652340	6.20000000E+1	
369.140630	6.10000000E+1	
369.628910	5.40000000E+1	
370.117190	6.20000000E+1	
370.605470	5.80000000E+1	
371.093750	7.00000000E+1	
371.58200	6.80000000E+1	
372.070310	7.40000000E+1	
372.558590	5.60000000E+1	
373.046880	7.80000000E+1	
373.535160	6.50000000E+1	
374.023440	4.90000000E+1	
374.511720	5.60000000E+1	
375.00	5.80000000E+1	
375.488280	6.10000000E+1	
375.976560	6.80000000E+1	
376.464840	6.30000000E+1	
376.953130	6.60000000E+1	
377.441410	6.80000000E+1	
377.929690	5.70000000E+1	
