Labels	APTMS_Br15_1M_1MHz_0	
Type	Time Scan	
Comment		
Start	0.00	
Stop	999.511720	
Step	0.48828125	
Fixed/Offset	 	
XAxis	Time(ns)	
YAxis	Counts	

0.00	0.00000000E+0	
0.48828125	0.00000000E+0	
0.97656250	0.00000000E+0	
1.4648438	0.00000000E+0	
1.9531250	0.00000000E+0	
2.4414063	0.00000000E+0	
2.9296875	0.00000000E+0	
3.4179688	0.00000000E+0	
3.906250	0.00000000E+0	
4.3945313	0.00000000E+0	
4.8828125	0.00000000E+0	
5.3710938	0.00000000E+0	
5.8593750	0.00000000E+0	
6.3476563	0.00000000E+0	
6.8359375	0.00000000E+0	
7.3242188	0.00000000E+0	
7.81250	0.00000000E+0	
8.3007813	0.00000000E+0	
8.7890625	0.00000000E+0	
9.2773438	0.00000000E+0	
9.7656250	0.00000000E+0	
10.253906	0.00000000E+0	
10.742188	0.00000000E+0	
11.230469	0.00000000E+0	
11.718750	0.00000000E+0	
12.207031	0.00000000E+0	
12.695313	0.00000000E+0	
13.183594	0.00000000E+0	
13.671875	0.00000000E+0	
14.160156	0.00000000E+0	
14.648438	0.00000000E+0	
15.136719	0.00000000E+0	
15.6250	0.00000000E+0	
16.113281	0.00000000E+0	
16.601563	0.00000000E+0	
17.089844	0.00000000E+0	
17.578125	0.00000000E+0	
18.066406	0.00000000E+0	
18.554688	0.00000000E+0	
19.042969	0.00000000E+0	
19.531250	0.00000000E+0	
20.019531	0.00000000E+0	
20.507813	0.00000000E+0	
20.996094	0.00000000E+0	
21.484375	0.00000000E+0	
21.972656	0.00000000E+0	
22.460938	0.00000000E+0	
22.949219	0.00000000E+0	
23.43750	0.00000000E+0	
23.925781	0.00000000E+0	
24.414063	0.00000000E+0	
24.902344	0.00000000E+0	
25.390625	0.00000000E+0	
25.878906	0.00000000E+0	
26.367188	0.00000000E+0	
26.855469	0.00000000E+0	
27.343750	0.00000000E+0	
27.832031	0.00000000E+0	
28.320313	0.00000000E+0	
28.808594	0.00000000E+0	
29.296875	0.00000000E+0	
29.785156	3.20000000E+1	
30.273438	1.02000000E+2	
30.761719	1.00000000E+2	
31.250	7.40000000E+1	
31.738281	6.80000000E+1	
32.226563	8.00000000E+1	
32.714844	6.60000000E+1	
33.203125	5.30000000E+1	
33.691406	5.60000000E+1	
34.179688	6.30000000E+1	
34.667969	6.70000000E+1	
35.156250	5.60000000E+1	
35.644531	5.70000000E+1	
36.132813	4.90000000E+1	
36.621094	5.90000000E+1	
37.109375	4.40000000E+1	
37.597656	5.80000000E+1	
38.085938	6.60000000E+1	
38.574219	4.90000000E+1	
39.06250	5.70000000E+1	
39.550781	6.00000000E+1	
40.039063	6.70000000E+1	
40.527344	4.50000000E+1	
41.015625	5.80000000E+1	
41.503906	6.30000000E+1	
41.992188	4.90000000E+1	
42.480469	5.80000000E+1	
42.968750	6.30000000E+1	
43.457031	5.10000000E+1	
43.945313	5.40000000E+1	
44.433594	4.70000000E+1	
44.921875	5.10000000E+1	
45.410156	5.60000000E+1	
45.898438	4.60000000E+1	
46.386719	6.30000000E+1	
46.8750	5.90000000E+1	
47.363281	4.00000000E+1	
47.851563	5.70000000E+1	
48.339844	5.60000000E+1	
48.828125	6.90000000E+1	
49.316406	9.50000000E+1	
49.804688	1.67000000E+2	
50.292969	2.21000000E+2	
50.781250	2.62000000E+2	
51.269531	2.46000000E+2	
51.757813	2.27000000E+2	
52.246094	2.16000000E+2	
52.734375	2.39000000E+2	
53.222656	2.49000000E+2	
53.710938	2.42000000E+2	
54.199219	2.28000000E+2	
54.68750	2.34000000E+2	
55.175781	2.13000000E+2	
55.664063	2.08000000E+2	
56.152344	2.15000000E+2	
56.640625	2.15000000E+2	
57.128906	1.96000000E+2	
57.617188	2.52000000E+2	
58.105469	2.09000000E+2	
58.593750	1.99000000E+2	
59.082031	2.01000000E+2	
59.570313	2.12000000E+2	
60.058594	2.11000000E+2	
60.546875	2.29000000E+2	
61.035156	2.06000000E+2	
61.523438	2.09000000E+2	
62.011719	1.80000000E+2	
62.50	1.73000000E+2	
62.988281	2.12000000E+2	
63.476563	2.18000000E+2	
63.964844	2.00000000E+2	
64.453125	2.05000000E+2	
64.941406	1.95000000E+2	
65.429688	1.99000000E+2	
65.917969	2.32000000E+2	
66.406250	1.90000000E+2	
66.894531	2.03000000E+2	
67.382813	1.93000000E+2	
67.871094	2.10000000E+2	
68.359375	2.00000000E+2	
68.847656	1.96000000E+2	
69.335938	1.91000000E+2	
69.824219	2.08000000E+2	
70.31250	2.09000000E+2	
70.800781	2.03000000E+2	
71.289063	2.07000000E+2	
71.777344	1.89000000E+2	
72.265625	2.00000000E+2	
72.753906	1.56000000E+2	
73.242188	2.06000000E+2	
73.730469	1.90000000E+2	
74.218750	1.92000000E+2	
74.707031	1.93000000E+2	
75.195313	2.17000000E+2	
75.683594	1.85000000E+2	
76.171875	1.55000000E+2	
76.660156	2.08000000E+2	
77.148438	1.92000000E+2	
77.636719	1.86000000E+2	
78.1250	1.67000000E+2	
78.613281	1.82000000E+2	
79.101563	1.83000000E+2	
79.589844	1.82000000E+2	
80.078125	1.70000000E+2	
80.566406	1.69000000E+2	
81.054688	2.07000000E+2	
81.542969	2.01000000E+2	
82.031250	1.86000000E+2	
82.519531	2.03000000E+2	
83.007813	1.83000000E+2	
83.496094	1.90000000E+2	
83.984375	1.75000000E+2	
84.472656	2.13000000E+2	
84.960938	1.82000000E+2	
85.449219	1.83000000E+2	
85.93750	1.69000000E+2	
86.425781	1.77000000E+2	
86.914063	2.00000000E+2	
87.402344	2.16000000E+2	
87.890625	1.93000000E+2	
88.378906	1.78000000E+2	
88.867188	1.72000000E+2	
89.355469	1.94000000E+2	
89.843750	1.75000000E+2	
90.332031	1.72000000E+2	
90.820313	1.78000000E+2	
91.308594	1.73000000E+2	
91.796875	1.96000000E+2	
92.285156	1.57000000E+2	
92.773438	1.68000000E+2	
93.261719	1.82000000E+2	
93.750	1.69000000E+2	
94.238281	2.01000000E+2	
94.726563	1.94000000E+2	
95.214844	2.00000000E+2	
95.703125	1.96000000E+2	
96.191406	2.02000000E+2	
96.679688	1.84000000E+2	
97.167969	1.80000000E+2	
97.656250	1.79000000E+2	
98.144531	1.93000000E+2	
98.632813	1.67000000E+2	
99.121094	1.68000000E+2	
99.609375	1.81000000E+2	
100.097660	1.75000000E+2	
100.585940	1.96000000E+2	
101.074220	1.75000000E+2	
101.562500	1.81000000E+2	
102.050780	1.75000000E+2	
102.539060	1.79000000E+2	
103.027340	1.50000000E+2	
103.515630	1.83000000E+2	
104.003910	1.64000000E+2	
104.492190	1.88000000E+2	
104.980470	1.90000000E+2	
105.468750	1.88000000E+2	
105.95700	1.79000000E+2	
106.445310	1.86000000E+2	
106.933590	1.62000000E+2	
107.421880	1.69000000E+2	
107.910160	1.99000000E+2	
108.398440	1.72000000E+2	
108.886720	1.75000000E+2	
109.37500	1.80000000E+2	
109.863280	1.91000000E+2	
110.351560	1.89000000E+2	
110.839840	1.89000000E+2	
111.328130	1.71000000E+2	
111.816410	1.63000000E+2	
112.304690	1.57000000E+2	
112.79300	1.88000000E+2	
113.281250	1.91000000E+2	
113.769530	1.72000000E+2	
114.257810	1.71000000E+2	
114.746090	1.65000000E+2	
115.234380	1.81000000E+2	
115.722660	1.86000000E+2	
116.210940	1.88000000E+2	
116.699220	1.59000000E+2	
117.187500	1.66000000E+2	
117.675780	1.79000000E+2	
118.164060	1.78000000E+2	
118.652340	1.76000000E+2	
119.140630	1.72000000E+2	
119.628910	1.73000000E+2	
120.117190	1.66000000E+2	
120.605470	1.49000000E+2	
121.093750	1.65000000E+2	
121.58200	1.73000000E+2	
122.070310	1.75000000E+2	
122.558590	1.78000000E+2	
123.046880	1.55000000E+2	
123.535160	1.67000000E+2	
124.023440	1.75000000E+2	
124.511720	2.07000000E+2	
125.00	1.79000000E+2	
125.488280	1.70000000E+2	
125.976560	1.71000000E+2	
126.464840	1.92000000E+2	
126.953130	1.91000000E+2	
127.441410	1.80000000E+2	
127.929690	1.63000000E+2	
128.41800	1.55000000E+2	
128.906250	1.71000000E+2	
129.394530	1.57000000E+2	
129.882810	1.82000000E+2	
130.371090	1.49000000E+2	
130.859380	1.77000000E+2	
131.347660	1.56000000E+2	
131.835940	1.79000000E+2	
132.324220	1.60000000E+2	
132.812500	1.71000000E+2	
133.300780	1.61000000E+2	
133.789060	1.83000000E+2	
134.277340	1.67000000E+2	
134.765630	1.54000000E+2	
135.253910	1.60000000E+2	
135.742190	1.49000000E+2	
136.230470	1.66000000E+2	
136.718750	1.67000000E+2	
137.20700	1.52000000E+2	
137.695310	1.65000000E+2	
138.183590	1.65000000E+2	
138.671880	1.63000000E+2	
139.160160	1.80000000E+2	
139.648440	1.62000000E+2	
140.136720	1.58000000E+2	
140.62500	1.66000000E+2	
141.113280	1.74000000E+2	
141.601560	1.59000000E+2	
142.089840	1.80000000E+2	
142.578130	1.53000000E+2	
143.066410	1.73000000E+2	
143.554690	1.61000000E+2	
144.04300	1.56000000E+2	
144.531250	1.67000000E+2	
145.019530	1.65000000E+2	
145.507810	1.82000000E+2	
145.996090	1.73000000E+2	
146.484380	1.68000000E+2	
146.972660	1.65000000E+2	
147.460940	1.63000000E+2	
147.949220	1.73000000E+2	
148.437500	1.70000000E+2	
148.925780	1.71000000E+2	
149.414060	1.85000000E+2	
149.902340	1.56000000E+2	
150.390630	1.61000000E+2	
150.878910	1.63000000E+2	
151.367190	1.72000000E+2	
151.855470	1.69000000E+2	
152.343750	1.72000000E+2	
152.83200	1.63000000E+2	
153.320310	1.74000000E+2	
153.808590	1.55000000E+2	
154.296880	1.74000000E+2	
154.785160	1.51000000E+2	
155.273440	1.57000000E+2	
155.761720	1.67000000E+2	
156.2500	1.49000000E+2	
156.738280	1.70000000E+2	
157.226560	1.56000000E+2	
157.714840	1.74000000E+2	
158.203130	1.74000000E+2	
158.691410	1.76000000E+2	
159.179690	1.54000000E+2	
159.66800	1.53000000E+2	
160.156250	1.80000000E+2	
160.644530	1.76000000E+2	
161.132810	1.68000000E+2	
161.621090	1.68000000E+2	
162.109380	1.86000000E+2	
162.597660	1.59000000E+2	
163.085940	1.81000000E+2	
163.574220	1.70000000E+2	
164.062500	1.62000000E+2	
164.550780	1.87000000E+2	
165.039060	1.77000000E+2	
165.527340	1.34000000E+2	
166.015630	1.69000000E+2	
166.503910	1.49000000E+2	
166.992190	1.45000000E+2	
167.480470	1.88000000E+2	
167.968750	1.66000000E+2	
168.45700	1.61000000E+2	
168.945310	1.72000000E+2	
169.433590	1.67000000E+2	
169.921880	1.62000000E+2	
170.410160	1.60000000E+2	
170.898440	1.56000000E+2	
171.386720	1.55000000E+2	
171.87500	1.79000000E+2	
172.363280	1.72000000E+2	
172.851560	1.46000000E+2	
173.339840	1.55000000E+2	
173.828130	1.72000000E+2	
174.316410	1.65000000E+2	
174.804690	1.44000000E+2	
175.29300	1.66000000E+2	
175.781250	1.62000000E+2	
176.269530	1.61000000E+2	
176.757810	1.84000000E+2	
177.246090	1.39000000E+2	
177.734380	1.59000000E+2	
178.222660	1.55000000E+2	
178.710940	1.87000000E+2	
179.199220	1.53000000E+2	
179.687500	1.82000000E+2	
180.175780	1.33000000E+2	
180.664060	1.48000000E+2	
181.152340	1.68000000E+2	
181.640630	1.49000000E+2	
182.128910	1.52000000E+2	
182.617190	1.52000000E+2	
183.105470	1.53000000E+2	
183.593750	1.38000000E+2	
184.08200	1.45000000E+2	
184.570310	1.64000000E+2	
185.058590	1.61000000E+2	
185.546880	1.43000000E+2	
186.035160	1.54000000E+2	
186.523440	1.37000000E+2	
187.011720	1.54000000E+2	
187.500	1.57000000E+2	
187.988280	1.58000000E+2	
188.476560	1.48000000E+2	
188.964840	1.76000000E+2	
189.453130	1.61000000E+2	
189.941410	1.65000000E+2	
190.429690	1.57000000E+2	
190.91800	1.39000000E+2	
191.406250	1.46000000E+2	
191.894530	1.43000000E+2	
192.382810	1.51000000E+2	
192.871090	1.53000000E+2	
193.359380	1.47000000E+2	
193.847660	1.54000000E+2	
194.335940	1.48000000E+2	
194.824220	1.49000000E+2	
195.312500	1.67000000E+2	
195.800780	1.41000000E+2	
196.289060	1.48000000E+2	
196.777340	1.63000000E+2	
197.265630	1.69000000E+2	
197.753910	1.39000000E+2	
198.242190	1.57000000E+2	
198.730470	1.77000000E+2	
199.218750	1.45000000E+2	
199.70700	1.49000000E+2	
200.195310	1.39000000E+2	
200.683590	1.54000000E+2	
201.171880	1.47000000E+2	
201.660160	1.62000000E+2	
202.148440	1.77000000E+2	
202.636720	1.54000000E+2	
203.12500	1.56000000E+2	
203.613280	1.41000000E+2	
204.101560	1.56000000E+2	
204.589840	1.43000000E+2	
205.078130	1.55000000E+2	
205.566410	1.38000000E+2	
206.054690	1.56000000E+2	
206.54300	1.67000000E+2	
207.031250	1.48000000E+2	
207.519530	1.51000000E+2	
208.007810	1.46000000E+2	
208.496090	1.33000000E+2	
208.984380	1.59000000E+2	
209.472660	1.57000000E+2	
209.960940	1.46000000E+2	
210.449220	1.50000000E+2	
210.937500	1.57000000E+2	
211.425780	1.45000000E+2	
211.914060	1.32000000E+2	
212.402340	1.31000000E+2	
212.890630	1.45000000E+2	
213.378910	1.24000000E+2	
213.867190	1.50000000E+2	
214.355470	1.34000000E+2	
214.843750	1.51000000E+2	
215.33200	1.54000000E+2	
215.820310	1.61000000E+2	
216.308590	1.34000000E+2	
216.796880	1.72000000E+2	
217.285160	1.49000000E+2	
217.773440	1.37000000E+2	
218.261720	1.37000000E+2	
218.7500	1.54000000E+2	
219.238280	1.37000000E+2	
219.726560	1.61000000E+2	
220.214840	1.56000000E+2	
220.703130	1.61000000E+2	
221.191410	1.64000000E+2	
221.679690	1.65000000E+2	
222.16800	1.24000000E+2	
222.656250	1.40000000E+2	
223.144530	1.52000000E+2	
223.632810	1.37000000E+2	
224.121090	1.56000000E+2	
224.609380	1.51000000E+2	
225.097660	1.37000000E+2	
225.585940	1.44000000E+2	
226.074220	1.51000000E+2	
226.562500	1.61000000E+2	
227.050780	1.41000000E+2	
227.539060	1.32000000E+2	
228.027340	1.28000000E+2	
228.515630	1.46000000E+2	
229.003910	1.52000000E+2	
229.492190	1.50000000E+2	
229.980470	1.53000000E+2	
230.468750	1.36000000E+2	
230.95700	1.34000000E+2	
231.445310	1.56000000E+2	
231.933590	1.33000000E+2	
232.421880	1.25000000E+2	
232.910160	1.64000000E+2	
233.398440	1.39000000E+2	
233.886720	1.61000000E+2	
234.37500	1.46000000E+2	
234.863280	1.57000000E+2	
235.351560	1.56000000E+2	
235.839840	1.57000000E+2	
236.328130	1.36000000E+2	
236.816410	1.44000000E+2	
237.304690	1.45000000E+2	
237.79300	1.46000000E+2	
238.281250	1.41000000E+2	
238.769530	1.30000000E+2	
239.257810	1.48000000E+2	
239.746090	1.41000000E+2	
240.234380	1.35000000E+2	
240.722660	1.31000000E+2	
241.210940	1.45000000E+2	
241.699220	1.59000000E+2	
242.187500	1.53000000E+2	
242.675780	1.53000000E+2	
243.164060	1.42000000E+2	
243.652340	1.45000000E+2	
244.140630	1.44000000E+2	
244.628910	1.59000000E+2	
245.117190	1.44000000E+2	
245.605470	1.27000000E+2	
246.093750	1.29000000E+2	
246.58200	1.73000000E+2	
247.070310	1.47000000E+2	
247.558590	1.36000000E+2	
248.046880	1.37000000E+2	
248.535160	1.62000000E+2	
249.023440	1.48000000E+2	
249.511720	1.37000000E+2	
250.00	1.46000000E+2	
250.488280	1.55000000E+2	
250.976560	1.57000000E+2	
251.464840	1.50000000E+2	
251.953130	1.40000000E+2	
252.441410	1.35000000E+2	
252.929690	1.55000000E+2	
253.41800	1.55000000E+2	
253.906250	1.56000000E+2	
254.394530	1.39000000E+2	
254.882810	1.34000000E+2	
255.371090	1.28000000E+2	
255.859380	1.38000000E+2	
256.347660	1.54000000E+2	
256.835940	1.28000000E+2	
257.324220	1.18000000E+2	
257.812500	1.15000000E+2	
258.300780	1.30000000E+2	
258.789060	1.33000000E+2	
259.277340	1.38000000E+2	
259.765630	1.56000000E+2	
260.253910	1.25000000E+2	
260.742190	1.44000000E+2	
261.230470	1.31000000E+2	
261.718750	1.54000000E+2	
262.20700	1.35000000E+2	
262.695310	1.50000000E+2	
263.183590	1.28000000E+2	
263.671880	1.44000000E+2	
264.160160	1.22000000E+2	
264.648440	1.33000000E+2	
265.136720	1.42000000E+2	
265.62500	1.39000000E+2	
266.113280	1.38000000E+2	
266.601560	1.20000000E+2	
267.089840	1.56000000E+2	
267.578130	1.54000000E+2	
268.066410	1.38000000E+2	
268.554690	1.38000000E+2	
269.04300	1.27000000E+2	
269.531250	1.24000000E+2	
270.019530	1.19000000E+2	
270.507810	1.35000000E+2	
270.996090	1.35000000E+2	
271.484380	1.46000000E+2	
271.972660	1.59000000E+2	
272.460940	1.29000000E+2	
272.949220	1.66000000E+2	
273.437500	1.35000000E+2	
273.925780	1.22000000E+2	
274.414060	1.33000000E+2	
274.902340	1.31000000E+2	
275.390630	1.34000000E+2	
275.878910	1.36000000E+2	
276.367190	1.35000000E+2	
276.855470	1.42000000E+2	
277.343750	1.46000000E+2	
277.83200	1.52000000E+2	
278.320310	1.22000000E+2	
278.808590	1.47000000E+2	
279.296880	1.33000000E+2	
279.785160	1.08000000E+2	
280.273440	1.36000000E+2	
280.761720	1.50000000E+2	
281.2500	1.73000000E+2	
281.738280	1.48000000E+2	
282.226560	1.43000000E+2	
282.714840	1.38000000E+2	
283.203130	1.27000000E+2	
283.691410	1.45000000E+2	
284.179690	1.31000000E+2	
284.66800	1.15000000E+2	
285.156250	1.36000000E+2	
285.644530	1.20000000E+2	
286.132810	1.29000000E+2	
286.621090	1.56000000E+2	
287.109380	1.41000000E+2	
287.597660	1.63000000E+2	
288.085940	1.45000000E+2	
288.574220	1.39000000E+2	
289.062500	1.30000000E+2	
289.550780	1.24000000E+2	
290.039060	1.46000000E+2	
290.527340	1.34000000E+2	
291.015630	1.24000000E+2	
291.503910	1.41000000E+2	
291.992190	1.55000000E+2	
292.480470	1.28000000E+2	
292.968750	1.30000000E+2	
293.45700	1.07000000E+2	
293.945310	1.43000000E+2	
294.433590	1.30000000E+2	
294.921880	1.52000000E+2	
295.410160	1.40000000E+2	
295.898440	1.25000000E+2	
296.386720	1.34000000E+2	
296.87500	1.42000000E+2	
297.363280	1.33000000E+2	
297.851560	1.22000000E+2	
298.339840	1.50000000E+2	
298.828130	1.37000000E+2	
299.316410	1.28000000E+2	
299.804690	1.38000000E+2	
300.29300	1.38000000E+2	
300.781250	1.54000000E+2	
301.269530	1.27000000E+2	
301.757810	1.24000000E+2	
302.246090	1.45000000E+2	
302.734380	1.31000000E+2	
303.222660	1.37000000E+2	
303.710940	1.25000000E+2	
304.199220	1.41000000E+2	
304.687500	1.42000000E+2	
305.175780	1.28000000E+2	
305.664060	1.36000000E+2	
306.152340	1.26000000E+2	
306.640630	1.33000000E+2	
307.128910	1.38000000E+2	
307.617190	1.50000000E+2	
308.105470	1.18000000E+2	
308.593750	1.26000000E+2	
309.08200	1.42000000E+2	
309.570310	1.26000000E+2	
310.058590	1.43000000E+2	
310.546880	1.43000000E+2	
311.035160	1.33000000E+2	
311.523440	1.21000000E+2	
312.011720	1.01000000E+2	
312.500	1.40000000E+2	
312.988280	1.47000000E+2	
313.476560	1.28000000E+2	
313.964840	1.37000000E+2	
314.453130	1.14000000E+2	
314.941410	1.34000000E+2	
315.429690	1.56000000E+2	
315.91800	1.17000000E+2	
316.406250	1.34000000E+2	
316.894530	1.32000000E+2	
317.382810	1.47000000E+2	
317.871090	1.42000000E+2	
318.359380	1.32000000E+2	
318.847660	1.26000000E+2	
319.335940	1.25000000E+2	
319.824220	1.26000000E+2	
320.312500	1.45000000E+2	
320.800780	1.29000000E+2	
321.289060	1.28000000E+2	
321.777340	1.12000000E+2	
322.265630	1.47000000E+2	
322.753910	1.25000000E+2	
323.242190	1.05000000E+2	
323.730470	1.23000000E+2	
324.218750	1.34000000E+2	
324.70700	1.43000000E+2	
325.195310	1.31000000E+2	
325.683590	1.61000000E+2	
326.171880	1.41000000E+2	
326.660160	1.22000000E+2	
327.148440	1.22000000E+2	
327.636720	1.03000000E+2	
328.12500	1.26000000E+2	
328.613280	1.32000000E+2	
329.101560	1.43000000E+2	
329.589840	1.26000000E+2	
330.078130	1.20000000E+2	
330.566410	1.35000000E+2	
331.054690	1.07000000E+2	
331.54300	1.52000000E+2	
332.031250	1.30000000E+2	
332.519530	1.20000000E+2	
333.007810	1.47000000E+2	
333.496090	1.47000000E+2	
333.984380	1.36000000E+2	
334.472660	1.47000000E+2	
334.960940	1.11000000E+2	
335.449220	1.30000000E+2	
335.937500	1.32000000E+2	
336.425780	1.39000000E+2	
336.914060	1.30000000E+2	
337.402340	1.19000000E+2	
337.890630	1.08000000E+2	
338.378910	1.25000000E+2	
338.867190	1.15000000E+2	
339.355470	1.12000000E+2	
339.843750	1.14000000E+2	
340.33200	1.36000000E+2	
340.820310	1.19000000E+2	
341.308590	1.46000000E+2	
341.796880	1.15000000E+2	
342.285160	1.32000000E+2	
342.773440	1.09000000E+2	
343.261720	1.30000000E+2	
343.7500	1.23000000E+2	
344.238280	1.22000000E+2	
344.726560	1.07000000E+2	
345.214840	1.27000000E+2	
345.703130	1.14000000E+2	
346.191410	1.18000000E+2	
346.679690	1.27000000E+2	
347.16800	1.18000000E+2	
347.656250	1.22000000E+2	
348.144530	1.04000000E+2	
348.632810	1.31000000E+2	
349.121090	1.16000000E+2	
349.609380	1.22000000E+2	
350.097660	1.23000000E+2	
350.585940	1.46000000E+2	
351.074220	1.26000000E+2	
351.562500	1.11000000E+2	
352.050780	1.15000000E+2	
352.539060	1.34000000E+2	
353.027340	1.43000000E+2	
353.515630	1.20000000E+2	
354.003910	1.24000000E+2	
354.492190	1.18000000E+2	
354.980470	1.27000000E+2	
355.468750	1.23000000E+2	
355.95700	1.33000000E+2	
356.445310	1.21000000E+2	
356.933590	1.20000000E+2	
357.421880	1.27000000E+2	
357.910160	1.23000000E+2	
358.398440	1.30000000E+2	
358.886720	1.39000000E+2	
359.37500	1.12000000E+2	
359.863280	1.16000000E+2	
360.351560	1.29000000E+2	
360.839840	1.28000000E+2	
361.328130	1.18000000E+2	
361.816410	1.05000000E+2	
362.304690	1.33000000E+2	
362.79300	1.37000000E+2	
363.281250	1.24000000E+2	
363.769530	1.28000000E+2	
364.257810	1.31000000E+2	
364.746090	1.34000000E+2	
365.234380	1.29000000E+2	
365.722660	1.30000000E+2	
366.210940	1.05000000E+2	
366.699220	1.17000000E+2	
367.187500	1.17000000E+2	
367.675780	1.21000000E+2	
368.164060	1.22000000E+2	
368.652340	1.43000000E+2	
369.140630	1.45000000E+2	
369.628910	1.06000000E+2	
370.117190	1.41000000E+2	
370.605470	1.30000000E+2	
371.093750	1.25000000E+2	
371.58200	1.19000000E+2	
372.070310	1.35000000E+2	
372.558590	1.26000000E+2	
373.046880	1.09000000E+2	
373.535160	1.14000000E+2	
374.023440	1.24000000E+2	
374.511720	1.36000000E+2	
375.00	1.27000000E+2	
375.488280	1.42000000E+2	
375.976560	1.25000000E+2	
376.464840	1.12000000E+2	
376.953130	1.32000000E+2	
377.441410	1.28000000E+2	
377.929690	1.21000000E+2	
